FORCE/DISPLACEMENT CLAMP EXPERIMENT 
 12/7/2015 
 
 Experiment Name: 	 Default 
 Cantilever ID #: 	 Default 
 Sampling rate (Hz): 	 1000 
 Actuation Mode: 	 Disp. Clamp 
 
 Set Point (um) 	 Actuator Position (um) 	 Piezo Position (um) 
1.754761	1.250000	0.003204
1.770020	1.243896	0.003845
1.785278	1.301270	0.001587
1.799927	1.250000	0.002228
1.815186	1.275635	0.003845
1.829834	1.281738	0.004150
1.845093	1.301270	0.003845
1.859741	1.307373	0.004791
1.875000	1.307373	0.004456
1.890259	1.345825	0.003845
1.904907	1.377563	0.002869
1.920166	1.345825	0.003510
1.934814	1.403198	0.004150
1.950073	1.422119	0.003845
1.964722	1.390381	0.004150
1.979980	1.409302	0.004150
1.995239	1.447754	0.003845
2.009888	1.434937	0.003510
2.025146	1.453857	0.004150
2.039795	1.479492	0.003845
2.055054	1.485596	0.003510
2.069702	1.485596	0.003845
2.084961	1.498413	0.003845
2.100220	1.511230	0.003204
2.114868	1.536865	0.004791
2.130127	1.524048	0.002563
2.144775	1.549683	0.004791
2.160034	1.555786	0.004150
2.175293	1.600342	0.004150
2.189941	1.594238	0.004456
2.205200	1.581421	0.004150
2.219849	1.568604	0.003204
2.235107	1.607056	0.005432
2.249756	1.644897	0.003510
2.265015	1.638794	0.005096
2.280273	1.625977	0.004791
2.294922	1.689453	0.003845
2.310181	1.677246	0.003845
2.324829	1.670532	0.003845
2.340088	1.715088	0.005432
2.354736	1.740723	0.003204
2.369995	1.696167	0.003204
2.385254	1.740723	0.003204
2.399902	1.759644	0.003204
2.415161	1.791992	0.005432
2.429810	1.772461	0.003510
2.445068	1.779175	0.003845
2.459717	1.798096	0.003845
2.474976	1.798096	0.002869
2.490234	1.829834	0.005432
2.504883	1.836548	0.003510
2.520142	1.842651	0.003204
2.534790	1.861572	0.003845
2.550049	1.861572	0.003510
2.564697	1.855469	0.002563
2.579956	1.881104	0.003204
2.595215	1.881104	0.002869
2.609863	1.912842	0.003510
2.625122	1.938477	0.004150
2.639771	1.963501	0.004456
2.655029	1.957397	0.004456
2.670288	1.989136	0.003845
2.684937	1.963501	0.003845
2.700195	2.001953	0.004150
2.714844	2.033691	0.004150
2.730103	2.014771	0.003204
2.744751	2.008057	0.003510
2.760010	2.046509	0.003510
2.775269	2.027588	0.003510
2.789917	2.052612	0.003204
2.805176	2.122803	0.004456
2.819824	2.103882	0.003510
2.835083	2.109985	0.003845
2.849731	2.135620	0.004456
2.864990	2.154541	0.003204
2.880249	2.148437	0.003204
2.894897	2.154541	0.003845
2.910156	2.180176	0.002563
2.924805	2.167358	0.003510
2.940063	2.167358	0.004456
2.954712	2.211914	0.003845
2.969971	2.224731	0.002228
2.985229	2.211914	0.003845
2.999878	2.237549	0.003845
3.015137	2.237549	0.002563
3.029785	2.301636	0.003510
3.045044	2.263184	0.003845
3.060303	2.294922	0.004791
3.074951	2.269287	0.002228
3.090210	2.313843	0.003204
3.104858	2.333374	0.001923
3.120117	2.365112	0.004456
3.134766	2.377930	0.003845
3.150024	2.365112	0.003845
3.165283	2.390747	0.005432
3.179932	2.384033	0.003845
3.195190	2.384033	0.003204
3.209839	2.435303	0.000336
3.225098	2.403564	0.002869
3.239746	2.428589	0.004150
3.255005	2.441406	0.003845
3.270264	2.467041	0.003510
3.284912	2.479858	0.003204
3.300171	2.492676	0.001923
3.314819	2.492676	0.004150
3.330078	2.524414	0.003845
3.344727	2.537231	0.004150
3.359985	2.524414	0.004150
3.375244	2.543335	0.003845
3.389893	2.581787	0.003845
3.405151	2.575073	0.003510
3.419800	2.619629	0.003510
3.435059	2.568970	0.002228
3.449707	2.581787	0.002869
3.464966	2.639160	0.002228
3.480225	2.619629	0.004456
3.494873	2.658081	0.002228
3.510132	2.670898	0.005096
3.524780	2.639160	0.003510
3.540039	2.683716	0.003845
3.555298	2.709351	0.003204
3.569946	2.709351	0.004456
3.585205	2.741089	0.003845
3.599854	2.734375	0.004150
3.615112	2.778931	0.004150
3.629761	2.747192	0.003204
3.645020	2.785645	0.003845
3.660278	2.791748	0.003845
3.674927	2.804565	0.002563
3.690186	2.785645	0.004150
3.704834	2.823486	0.004791
3.720093	2.843018	0.004150
3.734741	2.855835	0.002869
3.750000	2.849121	0.003510
3.765259	2.906494	0.004150
3.779907	2.868652	0.003845
3.795166	2.893677	0.004456
3.809814	2.893677	0.003845
3.825073	2.919312	0.004456
3.839722	2.976685	0.004150
3.854980	2.963867	0.004456
3.870239	2.982788	0.004456
3.884888	2.982788	0.002563
3.900146	2.970581	0.003510
3.914795	2.970581	0.003845
3.930054	2.995605	0.002563
3.944702	3.059692	0.002563
3.959961	3.046875	0.004456
3.975220	3.046875	0.003204
3.989868	3.078613	0.002563
4.005127	3.091431	0.004150
4.019775	3.084717	0.001923
4.035034	3.117065	0.003510
4.050293	3.129883	0.003845
4.064941	3.154907	0.004456
4.080200	3.135986	0.004150
4.094849	3.142090	0.004456
4.110107	3.186646	0.003845
4.124756	3.206177	0.003510
4.140015	3.180542	0.003845
4.155273	3.231812	0.003845
4.169922	3.244019	0.003510
4.185181	3.256836	0.002869
4.199829	3.269653	0.002563
4.215088	3.244019	0.003845
4.229736	3.276367	0.003510
4.244995	3.295288	0.004150
4.260254	3.301392	0.003204
4.274902	3.327026	0.003845
4.290161	3.345947	0.002563
4.304810	3.314209	0.004150
4.320068	3.371582	0.004150
4.334717	3.365479	0.003845
4.349976	3.358765	0.003510
4.365234	3.403320	0.003845
4.379883	3.416138	0.004456
4.395142	3.397217	0.002563
4.409790	3.441772	0.003204
4.425049	3.467407	0.003845
4.439697	3.416138	0.003510
4.454956	3.486328	0.005096
4.470215	3.473511	0.004150
4.484863	3.543701	0.004456
4.500122	3.505249	0.002563
4.514771	3.537598	0.004150
4.530029	3.556519	0.004456
4.545288	3.569336	0.004150
4.559937	3.569336	0.004150
4.575195	3.582153	0.003510
4.589844	3.556519	0.003845
4.605103	3.626709	0.004150
4.619751	3.607178	0.004456
4.635010	3.613892	0.002563
4.650269	3.632812	0.002869
4.664917	3.645630	0.004456
4.680176	3.690186	0.004456
4.694824	3.671265	0.002869
4.710083	3.690186	0.003845
4.724731	3.741455	0.002563
4.739990	3.715820	0.003845
4.755249	3.741455	0.004150
4.769897	3.747559	0.004456
4.785156	3.741455	0.003510
4.799805	3.747559	0.004150
4.815063	3.804932	0.004791
4.829712	3.830566	0.004150
4.844971	3.836670	0.004150
4.860229	3.855591	0.003204
4.874878	3.811035	0.005096
4.890137	3.811035	0.002563
4.904785	3.900757	0.006683
4.920044	3.862305	0.003204
4.935303	3.868408	0.003845
4.949951	3.900757	0.003510
4.965210	3.906860	0.004150
4.979858	3.957520	0.003204
4.995117	3.977051	0.005432
5.009766	3.970337	0.003845
5.025024	3.957520	0.003845
5.040283	3.977051	0.003204
5.054932	4.027710	0.003845
5.070190	4.040527	0.003204
5.084839	4.014893	0.003845
5.100098	4.040527	0.004791
5.114746	4.034424	0.003204
5.130005	4.072266	0.003845
5.145264	4.085083	0.004456
5.159912	4.078979	0.004150
5.175171	4.097900	0.003845
5.189819	4.129639	0.004150
5.205078	4.155273	0.004456
5.219727	4.129639	0.004791
5.234985	4.161377	0.004791
5.250244	4.180908	0.003845
5.264893	4.193726	0.004456
5.280151	4.218750	0.004150
5.294800	4.231567	0.004456
5.310059	4.251099	0.004456
5.324707	4.244385	0.002563
5.339966	4.244385	0.003845
5.355225	4.270020	0.003510
5.369873	4.288940	0.003510
5.385132	4.308472	0.003510
5.399780	4.327393	0.002869
5.415039	4.327393	0.003845
5.430298	4.353027	0.004456
5.444946	4.390869	0.003510
5.460205	4.378052	0.003204
5.474854	4.340210	0.004456
5.490112	4.435425	0.002228
5.504761	4.384766	0.003845
5.520020	4.416504	0.004150
5.535278	4.435425	0.002563
5.549927	4.435425	0.003845
5.565186	4.479980	0.003510
5.579834	4.467773	0.003204
5.595093	4.479980	0.003845
5.609741	4.524536	0.002869
5.625000	4.524536	0.004150
5.640259	4.531250	0.004150
5.654907	4.518433	0.004150
5.670166	4.524536	0.003845
5.684814	4.562988	0.004150
5.700073	4.562988	0.002869
5.714722	4.588623	0.002869
5.729980	4.652100	0.003845
5.745239	4.607544	0.003845
5.759888	4.620361	0.002869
5.775146	4.620361	0.003510
5.789795	4.658813	0.003510
5.805054	4.683838	0.003510
5.819702	4.671631	0.004150
5.834961	4.703369	0.004791
5.850220	4.735107	0.002563
5.864868	4.735107	0.004456
5.880127	4.741211	0.004791
5.894775	4.754028	0.004150
5.910034	4.779663	0.005096
5.925293	4.798584	0.003845
5.939941	4.805298	0.003845
5.955200	4.805298	0.002563
5.969849	4.849854	0.003510
5.985107	4.862671	0.003510
5.999756	4.837036	0.002869
6.015015	4.868774	0.003510
6.030273	4.875488	0.004791
6.044922	4.855957	0.003510
6.060181	4.900513	0.003510
6.074829	4.932251	0.003204
6.090088	4.938965	0.003845
6.104736	4.938965	0.003845
6.119995	4.938965	0.004791
6.135254	4.983521	0.003845
6.149902	4.983521	0.003204
6.165161	4.964600	0.004150
6.179810	5.040894	0.003510
6.195068	5.034790	0.003845
6.209717	5.028076	0.003204
6.224976	5.040894	0.004150
6.240234	5.072632	0.003204
6.254883	5.079346	0.003845
6.270142	5.117187	0.004150
6.284790	5.117187	0.003204
6.300049	5.130005	0.005096
6.314697	5.168457	0.003845
6.329956	5.130005	0.003204
6.345215	5.168457	0.003845
6.359863	5.142822	0.004150
6.375122	5.174561	0.002563
6.389771	5.174561	0.003510
6.405029	5.200195	0.002563
6.420288	5.238647	0.003204
6.434937	5.270386	0.002869
6.450195	5.283203	0.002869
6.464844	5.308228	0.003510
6.480103	5.257568	0.004150
6.494751	5.289307	0.003510
6.510010	5.327759	0.002228
6.525269	5.314941	0.004150
6.539917	5.327759	0.003845
6.555176	5.352783	0.003845
6.569824	5.372314	0.004791
6.585083	5.372314	0.004456
6.599731	5.365601	0.003204
6.614990	5.385132	0.003510
6.630249	5.435791	0.004150
6.644897	5.454712	0.003845
6.660156	5.435791	0.003845
6.674805	5.474243	0.003510
6.690063	5.487061	0.003204
6.704712	5.505981	0.004150
6.719971	5.499268	0.003510
6.735229	5.531616	0.002228
6.749878	5.563354	0.004456
6.765137	5.518799	0.003845
6.779785	5.569458	0.002563
6.795044	5.563354	0.004791
6.810303	5.595093	0.004791
6.824951	5.601196	0.003510
6.840210	5.639648	0.002869
6.854858	5.652466	0.002563
6.870117	5.658569	0.003510
6.884766	5.652466	0.003845
6.900024	5.684204	0.003845
6.915283	5.722656	0.004456
6.929932	5.703735	0.003510
6.945190	5.748291	0.004150
6.959839	5.722656	0.003510
6.975098	5.754395	0.002869
6.989746	5.748291	0.003510
7.005005	5.780029	0.004150
7.020264	5.780029	0.004150
7.034912	5.798950	0.004150
7.050171	5.843506	0.003510
7.064819	5.830688	0.004456
7.080078	5.830688	0.003845
7.094727	5.837402	0.005432
7.109985	5.881958	0.002869
7.125244	5.888062	0.003510
7.139893	5.881958	0.003845
7.155151	5.913696	0.003845
7.169800	5.939331	0.005096
7.185059	5.958252	0.002563
7.199707	5.952148	0.003510
7.214966	5.983887	0.003845
7.230225	5.977173	0.003845
7.244873	5.989990	0.003204
7.260132	6.021729	0.003204
7.274780	6.021729	0.002563
7.290039	6.041260	0.004456
7.305298	6.021729	0.004150
7.319946	6.066284	0.002563
7.335205	6.104736	0.002228
7.349854	6.079102	0.005096
7.365112	6.104736	0.002869
7.379761	6.098633	0.005096
7.395020	6.162109	0.004791
7.410278	6.123657	0.004150
7.424927	6.162109	0.004150
7.440186	6.187744	0.003845
7.454834	6.181030	0.003204
7.470093	6.213379	0.003845
7.484741	6.238403	0.005096
7.500000	6.245117	0.003845
7.515259	6.251221	0.004150
7.529907	6.264038	0.004791
7.545166	6.251221	0.003845
7.559814	6.282959	0.003845
7.575073	6.282959	0.003204
7.589722	6.340332	0.004150
7.604980	6.327515	0.004150
7.620239	6.347046	0.003510
7.634888	6.347046	0.002563
7.650146	6.378784	0.003510
7.664795	6.429443	0.003510
7.680054	6.410522	0.003204
7.694702	6.417236	0.003204
7.709961	6.436157	0.004456
7.725220	6.461792	0.002869
7.739868	6.480713	0.003204
7.755127	6.480713	0.003510
7.769775	6.480713	0.004150
7.785034	6.499634	0.003845
7.800293	6.512451	0.003204
7.814941	6.525269	0.003845
7.830200	6.544189	0.002869
7.844849	6.557007	0.005096
7.860107	6.538086	0.003204
7.874756	6.569824	0.003204
7.890015	6.588745	0.002563
7.905273	6.621094	0.003845
7.919922	6.627197	0.004456
7.935181	6.608276	0.004456
7.949829	6.665649	0.004150
7.965088	6.621094	0.004150
7.979736	6.710205	0.003845
7.994995	6.690674	0.004791
8.010254	6.773682	0.003510
8.024902	6.723022	0.002563
8.040161	6.723022	0.003510
8.054810	6.767578	0.003204
8.070068	6.780396	0.003204
8.084717	6.799316	0.003204
8.099976	6.792603	0.001923
8.115234	6.805420	0.003845
8.129883	6.824951	0.004150
8.145142	6.862793	0.004456
8.159790	6.843872	0.004456
8.175049	6.856689	0.003510
8.189697	6.894531	0.003204
8.204956	6.914062	0.003845
8.220215	6.932983	0.003510
8.234863	6.926880	0.003204
8.250122	6.926880	0.003204
8.264771	6.971436	0.004456
8.280029	6.932983	0.002563
8.295288	6.977539	0.004791
8.309937	7.003174	0.004150
8.325195	6.996460	0.004791
8.339844	7.022095	0.002869
8.355103	7.066650	0.003845
8.369751	7.047729	0.004791
8.385010	7.073364	0.003204
8.400269	7.073364	0.003845
8.414917	7.098389	0.002869
8.430176	7.117920	0.003510
8.444824	7.149658	0.004456
8.460083	7.136841	0.003845
8.474731	7.149658	0.003204
8.489990	7.181396	0.003204
8.505249	7.188110	0.003510
8.519897	7.200317	0.004150
8.535156	7.232666	0.002563
8.549805	7.251587	0.003845
8.565063	7.251587	0.003845
8.579712	7.270508	0.004456
8.594971	7.283325	0.003845
8.610229	7.270508	0.004150
8.624878	7.296143	0.003510
8.640137	7.308960	0.003510
8.654785	7.340698	0.003845
8.670044	7.347412	0.004456
8.685303	7.353516	0.003845
8.699951	7.372437	0.004150
8.715210	7.366333	0.004456
8.729858	7.398071	0.003204
8.745117	7.391968	0.004150
8.759766	7.461548	0.004150
8.775024	7.442627	0.003204
8.790283	7.487183	0.005096
8.804932	7.481079	0.003510
8.820190	7.481079	0.003845
8.834839	7.538452	0.003510
8.850098	7.525635	0.004456
8.864746	7.525635	0.003845
8.880005	7.538452	0.004150
8.895264	7.557373	0.003845
8.909912	7.595825	0.002563
8.925171	7.589111	0.003845
8.939819	7.608643	0.002563
8.955078	7.640381	0.002228
8.969727	7.646484	0.003845
8.984985	7.653198	0.003204
9.000244	7.678223	0.004150
9.014893	7.691040	0.003845
9.030151	7.729492	0.004456
9.044800	7.710571	0.002563
9.060059	7.691040	0.004456
9.074707	7.716675	0.004456
9.089966	7.748413	0.002869
9.105225	7.748413	0.003510
9.119873	7.780151	0.003204
9.135132	7.774048	0.003510
9.149780	7.818604	0.003845
9.165039	7.831421	0.002228
9.180298	7.818604	0.002869
9.194946	7.850342	0.003204
9.210205	7.863159	0.004456
9.224854	7.863159	0.004456
9.240112	7.933350	0.003510
9.254761	7.901611	0.002563
9.270020	7.920532	0.004791
9.285278	7.920532	0.004791
9.299927	7.914429	0.004456
9.315186	7.952271	0.003510
9.329834	7.977905	0.002563
9.345093	7.939453	0.003204
9.359741	8.016357	0.003204
9.375000	7.996826	0.002228
9.390259	8.009644	0.003510
9.404907	8.079834	0.002563
9.420166	8.085937	0.003204
9.434814	8.067017	0.004150
9.450073	8.048096	0.004150
9.464722	8.098755	0.004150
9.479980	8.130493	0.003204
9.495239	8.111572	0.004456
9.509888	8.162842	0.003510
9.525146	8.150024	0.004150
9.539795	8.162842	0.003510
9.555054	8.175049	0.004150
9.569702	8.200684	0.002869
9.584961	8.194580	0.003204
9.600220	8.207397	0.003845
9.614868	8.220215	0.004456
9.630127	8.283691	0.003845
9.644775	8.309326	0.004150
9.660034	8.277588	0.003845
9.675293	8.315430	0.004150
9.689941	8.315430	0.003845
9.705200	8.322144	0.003510
9.719849	8.372803	0.003845
9.735107	8.366699	0.004456
9.749756	8.353882	0.005096
9.765015	8.359985	0.002869
9.780273	8.391724	0.003510
9.794922	8.436279	0.003845
9.810181	8.366699	0.003510
9.824829	8.436279	0.002563
9.840088	8.442993	0.004456
9.854736	8.468628	0.004456
9.869995	8.481445	0.004456
9.885254	8.500366	0.003845
9.899902	8.487549	0.004150
9.915161	8.526001	0.002563
9.929810	8.557739	0.002869
9.945068	8.557739	0.003845
9.959717	8.576660	0.003845
9.974976	8.608398	0.003204
9.990234	8.608398	0.003845
10.004883	8.602295	0.001923
10.020142	8.640137	0.001923
10.034790	8.608398	0.002563
10.050049	8.672485	0.003845
10.064697	8.704224	0.004150
10.079956	8.704224	0.002563
10.095215	8.723145	0.001282
10.109863	8.742065	0.004150
10.125122	8.742065	0.002869
10.139771	8.748779	0.003204
10.155029	8.780518	0.003510
10.170288	8.761597	0.003204
10.184937	8.825073	0.002563
10.200195	8.799438	0.004456
10.214844	8.787231	0.003204
10.230103	8.825073	0.003845
10.244751	8.856812	0.002563
10.260010	8.882446	0.003510
10.275269	8.869629	0.003204
10.289917	8.914185	0.001923
10.305176	8.901367	0.003510
10.319824	8.927002	0.002563
10.335083	8.920898	0.003510
10.349731	8.952637	0.004456
10.364990	8.933716	0.004791
10.380249	8.958740	0.003510
10.394897	9.003296	0.004456
10.410156	9.022827	0.003845
10.424805	8.991089	0.003845
10.440063	9.041748	0.003510
10.454712	9.016113	0.003204
10.469971	9.060669	0.004456
10.485229	9.093018	0.002869
10.499878	9.111938	0.004150
10.515137	9.086304	0.003845
10.529785	9.105225	0.004150
10.545044	9.169312	0.004150
10.560303	9.156494	0.004791
10.574951	9.150391	0.004150
10.590210	9.175415	0.003845
10.604858	9.182129	0.003510
10.620117	9.239502	0.004150
10.634766	9.201050	0.004150
10.650024	9.245605	0.005737
10.665283	9.226685	0.004456
10.679932	9.271240	0.003204
10.695190	9.245605	0.004150
10.709839	9.321899	0.004150
10.725098	9.290161	0.005096
10.739746	9.321899	0.003510
10.755005	9.347534	0.002563
10.770264	9.341431	0.003845
10.784912	9.379272	0.005432
10.800171	9.373169	0.004791
10.814819	9.360352	0.003845
10.830078	9.398804	0.003845
10.844727	9.411011	0.003204
10.859985	9.436646	0.004791
10.875244	9.494019	0.004150
10.889893	9.443359	0.004456
10.905151	9.500732	0.002869
10.919800	9.494019	0.003510
10.935059	9.512939	0.003510
10.949707	9.525757	0.004791
10.964966	9.525757	0.003204
10.980225	9.545288	0.002563
10.994873	9.589844	0.004150
11.010132	9.602661	0.004456
11.024780	9.570312	0.003845
11.040039	9.577026	0.004150
11.055298	9.615479	0.004791
11.069946	9.672241	0.003204
11.085205	9.672241	0.004456
11.099854	9.672241	0.003845
11.115112	9.691772	0.003510
11.129761	9.678955	0.004456
11.145020	9.717407	0.003204
11.160278	9.729614	0.003510
11.174927	9.774170	0.002869
11.190186	9.768066	0.002228
11.204834	9.755249	0.002563
11.220093	9.793701	0.002228
11.234741	9.806519	0.005432
11.250000	9.838257	0.004150
11.265259	9.838257	0.003204
11.279907	9.857178	0.003845
11.295166	9.863892	0.003845
11.309814	9.882812	0.004456
11.325073	9.888916	0.003510
11.339722	9.882812	0.003510
11.354980	9.921265	0.004456
11.370239	9.914551	0.003845
11.384888	9.908447	0.003845
11.400146	9.978027	0.003204
11.414795	9.990845	0.004791
11.430054	9.997559	0.004150
11.444702	10.003662	0.003204
11.459961	10.029297	0.004150
11.475220	10.035400	0.004456
11.489868	10.029297	0.003510
11.505127	10.067749	0.003510
11.519775	10.079956	0.004150
11.535034	10.112305	0.003845
11.550293	10.105591	0.004150
11.564941	10.137329	0.003845
11.580200	10.125122	0.004150
11.594849	10.150146	0.005432
11.610107	10.162964	0.004456
11.624756	10.169678	0.004791
11.640015	10.188599	0.005432
11.655273	10.220337	0.004791
11.669922	10.233154	0.003510
11.685181	10.245972	0.004456
11.699829	10.258789	0.003204
11.715088	10.258789	0.004150
11.729736	10.284424	0.003204
11.744995	10.309448	0.004456
11.760254	10.277710	0.004150
11.774902	10.322266	0.002869
11.790161	10.366821	0.002563
11.804810	10.354004	0.002228
11.820068	10.354004	0.002563
11.834717	10.379639	0.003204
11.849976	10.405273	0.003845
11.865234	10.424194	0.003204
11.879883	10.437012	0.002869
11.895142	10.462646	0.001587
11.909790	10.462646	0.003510
11.925049	10.500488	0.004150
11.939697	10.494385	0.003845
11.954956	10.526123	0.003845
11.970215	10.545044	0.003204
11.984863	10.545044	0.004791
12.000122	10.557861	0.003845
12.014771	10.557861	0.004456
12.030029	10.577393	0.003510
12.045288	10.577393	0.004791
12.059937	10.602417	0.004150
12.075195	10.628052	0.004791
12.089844	10.653687	0.003845
12.105103	10.646973	0.004150
12.119751	10.653687	0.003845
12.135010	10.698242	0.004150
12.150269	10.685425	0.003510
12.164917	10.717163	0.004150
12.180176	10.698242	0.003510
12.194824	10.761719	0.004150
12.210083	10.781250	0.004150
12.224731	10.761719	0.002563
12.239990	10.800171	0.003845
12.255249	10.806274	0.002228
12.269897	10.806274	0.002563
12.285156	10.819092	0.003845
12.299805	10.812988	0.004150
12.315063	10.883179	0.003845
12.329712	10.844727	0.003845
12.344971	10.914917	0.003204
12.360229	10.921021	0.004456
12.374878	10.940552	0.004456
12.390137	10.895996	0.004150
12.404785	10.953369	0.003845
12.420044	10.959473	0.003204
12.435303	10.985107	0.004456
12.449951	10.997925	0.004456
12.465210	11.010132	0.004150
12.479858	11.042480	0.003510
12.495117	11.042480	0.002869
12.509766	11.067505	0.004150
12.525024	11.080322	0.003510
12.540283	11.087036	0.004150
12.554932	11.105957	0.003845
12.570190	11.118774	0.003845
12.584839	11.150513	0.003510
12.600098	11.163330	0.003845
12.614746	11.157227	0.004150
12.630005	11.157227	0.003845
12.645264	11.188965	0.003845
12.659912	11.265259	0.004791
12.675171	11.207886	0.004456
12.689819	11.246338	0.003510
12.705078	11.259155	0.004150
12.719727	11.265259	0.003510
12.734985	11.259155	0.002869
12.750244	11.278076	0.002563
12.764893	11.290894	0.003510
12.780151	11.315918	0.004791
12.794800	11.341553	0.003845
12.810059	11.354370	0.004150
12.824707	11.354370	0.003204
12.839966	11.367187	0.004150
12.855225	11.411743	0.004150
12.869873	11.417847	0.003845
12.885132	11.430664	0.003845
12.899780	11.411743	0.003510
12.915039	11.481934	0.004150
12.930298	11.456299	0.003845
12.944946	11.469116	0.003845
12.960205	11.488037	0.003204
12.974854	11.494751	0.004150
12.990112	11.539307	0.004150
13.004761	11.545410	0.003510
13.020020	11.552124	0.003204
13.035278	11.571045	0.003845
13.049927	11.583862	0.005096
13.065186	11.596680	0.003510
13.079834	11.564941	0.004456
13.095093	11.615601	0.004456
13.109741	11.641235	0.003845
13.125000	11.666870	0.003510
13.140259	11.666870	0.003845
13.154907	11.679077	0.004456
13.170166	11.736450	0.003510
13.184814	11.691895	0.001923
13.200073	11.730347	0.003510
13.214722	11.762085	0.003845
13.229980	11.768799	0.003204
13.245239	11.768799	0.004150
13.259888	11.768799	0.004456
13.275146	11.793823	0.003845
13.289795	11.793823	0.004150
13.305054	11.864014	0.005096
13.319702	11.793823	0.003845
13.334961	11.864014	0.003845
13.350220	11.934204	0.003845
13.364868	11.889648	0.004791
13.380127	11.928101	0.004791
13.394775	11.953125	0.003204
13.410034	11.908569	0.004150
13.425293	11.965942	0.003510
13.439941	11.997681	0.003845
13.455200	11.984863	0.004456
13.469849	12.023315	0.003204
13.485107	12.023315	0.002563
13.499756	12.010498	0.004456
13.515015	12.036133	0.005737
13.530273	12.023315	0.004456
13.544922	12.036133	0.005096
13.560181	12.106323	0.002563
13.574829	12.099609	0.002563
13.590088	12.099609	0.006073
13.604736	12.131958	0.002563
13.619995	12.119141	0.003204
13.635254	12.182617	0.003204
13.649902	12.150879	0.002563
13.665161	12.169800	0.002869
13.679810	12.189331	0.003510
13.695068	12.221069	0.002228
13.709717	12.227173	0.005096
13.724976	12.271729	0.004150
13.740234	12.265625	0.004150
13.754883	12.258911	0.003510
13.770142	12.278442	0.002563
13.784790	12.329102	0.001923
13.800049	12.322998	0.004456
13.814697	12.303467	0.004456
13.829956	12.341919	0.002563
13.845215	12.380371	0.004150
13.859863	12.354736	0.001923
13.875122	12.373657	0.002563
13.889771	12.405396	0.003204
13.905029	12.431030	0.003510
13.920288	12.431030	0.002869
13.934937	12.431030	0.003845
13.950195	12.482300	0.004150
13.964844	12.507324	0.005096
13.980103	12.462769	0.002563
13.994751	12.507324	0.002563
14.010010	12.514038	0.003510
14.025269	12.532959	0.004456
14.039917	12.558594	0.004150
14.055176	12.558594	0.004150
14.069824	12.609253	0.004791
14.085083	12.584229	0.003845
14.099731	12.597046	0.003204
14.114990	12.641602	0.003845
14.130249	12.653809	0.003204
14.144897	12.686157	0.004150
14.160156	12.711182	0.004150
14.174805	12.666626	0.005432
14.190063	12.711182	0.004150
14.204712	12.705078	0.004456
14.219971	12.723999	0.003204
14.235229	12.743530	0.003510
14.249878	12.755737	0.004150
14.265137	12.775269	0.005096
14.279785	12.788086	0.005737
14.295044	12.781372	0.002563
14.310303	12.832642	0.003845
14.324951	12.813110	0.005432
14.340210	12.864380	0.003510
14.354858	12.870483	0.003510
14.370117	12.864380	0.004150
14.384766	12.890015	0.004150
14.400024	12.927856	0.004150
14.415283	12.927856	0.004150
14.429932	12.947388	0.001923
14.445190	12.966309	0.004791
14.459839	12.966309	0.003845
14.475098	12.991943	0.003510
14.489746	13.010864	0.004456
14.505005	13.023682	0.003845
14.520264	13.049316	0.003845
14.534912	13.068237	0.003510
14.550171	13.093872	0.005096
14.564819	13.125610	0.003845
14.580078	13.106689	0.003845
14.594727	13.106689	0.002869
14.609985	13.138428	0.003845
14.625244	13.176270	0.004456
14.639893	13.176270	0.004456
14.655151	13.182983	0.003510
14.669800	13.182983	0.004150
14.685059	13.189087	0.004150
14.699707	13.214722	0.004456
14.714966	13.220825	0.006073
14.730225	13.253174	0.004150
14.744873	13.272095	0.003510
14.760132	13.253174	0.003845
14.774780	13.303833	0.004150
14.790039	13.291016	0.004791
14.805298	13.329468	0.003510
14.819946	13.348389	0.005432
14.835205	13.355103	0.002869
14.849854	13.348389	0.004150
14.865112	13.361206	0.003510
14.879761	13.386841	0.004456
14.895020	13.412476	0.003845
14.910278	13.412476	0.002869
14.924927	13.424683	0.004791
14.940186	13.444214	0.004150
14.954834	13.469849	0.004150
14.970093	13.501587	0.003204
14.984741	13.501587	0.004150
15.000000	13.527222	0.003845
15.015259	13.501587	0.003204
15.029907	13.539429	0.003204
15.045166	13.558960	0.003510
15.059814	13.577881	0.002869
15.075073	13.590698	0.002228
15.089722	13.654175	0.003204
15.104980	13.609619	0.004456
15.120239	13.629150	0.004456
15.134888	13.654175	0.003845
15.150146	13.660889	0.004150
15.164795	13.692627	0.004150
15.180054	13.679810	0.004456
15.194702	13.718262	0.003204
15.209961	13.743286	0.003845
15.225220	13.756104	0.004150
15.239868	13.731079	0.003845
15.255127	13.826294	0.004150
15.269775	13.800659	0.002228
15.285034	13.800659	0.003845
15.300293	13.813477	0.002563
15.314941	13.800659	0.006073
15.330200	13.813477	0.004150
15.344849	13.845215	0.003204
15.360107	13.858032	0.003510
15.374756	13.902588	0.003845
15.390015	13.902588	0.004456
15.405273	13.922119	0.004150
15.419922	13.934937	0.003204
15.435181	13.934937	0.001282
15.449829	13.972778	0.003510
15.465088	13.972778	0.003510
15.479736	13.972778	0.003510
15.494995	13.979492	0.004456
15.510254	14.049072	0.003510
15.524902	14.030151	0.004150
15.540161	14.068604	0.004150
15.554810	14.049072	0.002228
15.570068	14.061890	0.005096
15.584717	14.106445	0.003510
15.599976	14.100342	0.003510
15.615234	14.093628	0.003845
15.629883	14.125977	0.005737
15.645142	14.151001	0.002563
15.659790	14.170532	0.004456
15.675049	14.151001	0.003510
15.689697	14.196167	0.003845
15.704956	14.221191	0.004150
15.720215	14.240723	0.003845
15.734863	14.252930	0.004150
15.750122	14.252930	0.003510
15.764771	14.259644	0.003845
15.780029	14.278564	0.003845
15.795288	14.285278	0.003204
15.809937	14.278564	0.004150
15.825195	14.291382	0.004456
15.839844	14.329834	0.003510
15.855103	14.329834	0.003845
15.869751	14.342651	0.003845
15.885010	14.374390	0.004150
15.900269	14.406128	0.002869
15.914917	14.431763	0.004150
15.930176	14.450684	0.004150
15.944824	14.412231	0.003204
15.960083	14.456787	0.003510
15.974731	14.463501	0.003845
15.989990	14.469604	0.003845
16.005249	14.508057	0.004456
16.019897	14.501953	0.004791
16.035156	14.533691	0.004150
16.049805	14.546509	0.004456
16.065063	14.578247	0.004150
16.079712	14.571533	0.001923
16.094971	14.597168	0.004791
16.110229	14.571533	0.004150
16.124878	14.609985	0.004150
16.140137	14.628906	0.003204
16.154785	14.654541	0.002228
16.170044	14.673462	0.002563
16.185303	14.648437	0.003204
16.199951	14.730835	0.002228
16.215210	14.673462	0.003845
16.229858	14.711914	0.003510
16.245117	14.718018	0.003510
16.259766	14.718018	0.003204
16.275024	14.782104	0.004456
16.290283	14.769287	0.003845
16.304932	14.832764	0.003845
16.320190	14.813843	0.002869
16.334839	14.794922	0.003204
16.350098	14.807739	0.002228
16.364746	14.865112	0.002563
16.380005	14.858398	0.002228
16.395264	14.865112	0.002563
16.409912	14.896851	0.003845
16.425171	14.915771	0.003845
16.439819	14.928589	0.003845
16.455078	14.954224	0.004456
16.469727	14.934692	0.004150
16.484985	14.954224	0.004791
16.500244	14.954224	0.003845
16.514893	14.947510	0.005432
16.530151	15.049438	0.003845
16.544800	15.036621	0.004150
16.560059	15.030518	0.003204
16.574707	15.030518	0.002563
16.589966	15.049438	0.002228
16.605225	15.106812	0.003204
16.619873	15.093994	0.004150
16.635132	15.100708	0.004150
16.649780	15.119629	0.003510
16.665039	15.132446	0.004150
16.680298	15.164185	0.003845
16.694946	15.145264	0.003204
16.710205	15.164185	0.003204
16.724854	15.240479	0.003510
16.740112	15.202637	0.003845
16.754761	15.240479	0.003510
16.770020	15.253296	0.003510
16.785278	15.253296	0.003845
16.799927	15.266113	0.004150
16.815186	15.304565	0.003845
16.829834	15.317383	0.003845
16.845093	15.310669	0.004150
16.859741	15.336304	0.001282
16.875000	15.361938	0.004150
16.890259	15.393677	0.004456
16.904907	15.368042	0.004150
16.920166	15.355225	0.003204
16.934814	15.425415	0.003510
16.950073	15.425415	0.003845
16.964722	15.399780	0.004150
16.979980	15.476685	0.004791
16.995239	15.482788	0.003845
17.009888	15.488892	0.004150
17.025146	15.488892	0.004150
17.039795	15.469971	0.002563
17.055054	15.565796	0.003510
17.069702	15.546265	0.003204
17.084961	15.565796	0.003204
17.100220	15.552979	0.001923
17.114868	15.590820	0.004791
17.130127	15.610352	0.004150
17.144775	15.616455	0.002869
17.160034	15.616455	0.003845
17.175293	15.642090	0.002869
17.189941	15.661011	0.004791
17.205200	15.712280	0.004456
17.219849	15.680542	0.003845
17.235107	15.725098	0.003510
17.249756	15.712280	0.003845
17.265015	15.737915	0.004150
17.280273	15.744019	0.003510
17.294922	15.794678	0.003845
17.310181	15.782471	0.004456
17.324829	15.782471	0.002869
17.340088	15.814209	0.003510
17.354736	15.814209	0.004791
17.369995	15.845947	0.004150
17.385254	15.820312	0.003845
17.399902	15.871582	0.004150
17.415161	15.877686	0.005737
17.429810	15.871582	0.004150
17.445068	15.903320	0.003845
17.459717	15.960693	0.002563
17.474976	15.909424	0.003510
17.490234	15.960693	0.004791
17.504883	15.979614	0.003204
17.520142	15.986328	0.003510
17.534790	15.979614	0.003204
17.550049	16.049805	0.004150
17.564697	16.030884	0.003204
17.579956	16.055908	0.003845
17.595215	16.068726	0.004456
17.609863	16.055908	0.002563
17.625122	16.075439	0.004150
17.639771	16.113281	0.004150
17.655029	16.132812	0.004150
17.670288	16.138916	0.003845
17.684937	16.157837	0.004150
17.700195	16.138916	0.003204
17.714844	16.177368	0.003845
17.730103	16.203003	0.004150
17.744751	16.215210	0.005432
17.760010	16.247559	0.003510
17.775269	16.234741	0.003845
17.789917	16.247559	0.004150
17.805176	16.272583	0.004150
17.819824	16.298218	0.003845
17.835083	16.311035	0.003510
17.849731	16.323853	0.003204
17.864990	16.342773	0.005737
17.880249	16.355591	0.003845
17.894897	16.368408	0.004456
17.910156	16.368408	0.001923
17.924805	16.381226	0.002563
17.940063	16.412964	0.003510
17.954712	16.425781	0.003845
17.969971	16.457520	0.002869
17.985229	16.438599	0.002228
17.999878	16.451416	0.003845
18.015137	16.502075	0.003204
18.029785	16.520996	0.004791
18.045044	16.520996	0.002563
18.060303	16.533813	0.003510
18.074951	16.508789	0.004150
18.090210	16.540527	0.004791
18.104858	16.559448	0.004150
18.120117	16.597900	0.004150
18.134766	16.604004	0.003845
18.150024	16.604004	0.002228
18.165283	16.610718	0.003510
18.179932	16.642456	0.004150
18.195190	16.661377	0.004150
18.209839	16.655273	0.003510
18.225098	16.699829	0.003204
18.239746	16.699829	0.004150
18.255005	16.731567	0.003845
18.270264	16.763306	0.003845
18.284912	16.731567	0.004150
18.300171	16.744385	0.003845
18.314819	16.750488	0.004150
18.330078	16.795044	0.004150
18.344727	16.795044	0.003845
18.359985	16.795044	0.004150
18.375244	16.839600	0.003204
18.389893	16.871948	0.003510
18.405151	16.852417	0.003510
18.419800	16.878052	0.003845
18.435059	16.903687	0.002563
18.449707	16.909790	0.003204
18.464966	16.916504	0.002563
18.480225	16.941528	0.003845
18.494873	16.954346	0.003845
18.510132	16.992798	0.003510
18.524780	16.992798	0.003510
18.540039	17.005615	0.003510
18.555298	17.011719	0.003845
18.569946	17.037354	0.005096
18.585205	17.037354	0.003510
18.599854	17.056274	0.002563
18.615112	17.062988	0.002869
18.629761	17.062988	0.003510
18.645020	17.120361	0.002869
18.660278	17.120361	0.003204
18.674927	17.158203	0.003845
18.690186	17.126465	0.003204
18.704834	17.202759	0.005096
18.720093	17.183838	0.004456
18.734741	17.189941	0.003510
18.750000	17.209473	0.003510
18.765259	17.254028	0.003845
18.779907	17.241211	0.003510
18.795166	17.266846	0.003510
18.809814	17.234497	0.003204
18.825073	17.279663	0.002228
18.839722	17.291870	0.004150
18.854980	17.311401	0.003204
18.870239	17.355957	0.003204
18.884888	17.343140	0.002563
18.900146	17.355957	0.003845
18.914795	17.362061	0.003510
18.930054	17.362061	0.005096
18.944702	17.381592	0.004791
18.959961	17.426147	0.004791
18.975220	17.432251	0.005096
18.989868	17.463989	0.004456
19.005127	17.489624	0.004456
19.019775	17.476807	0.004456
19.035034	17.451172	0.004150
19.050293	17.515259	0.002563
19.064941	17.528076	0.002563
19.080200	17.528076	0.004456
19.094849	17.565918	0.003204
19.110107	17.591553	0.003204
19.124756	17.578735	0.003845
19.140015	17.623291	0.003510
19.155273	17.565918	0.003845
19.169922	17.636108	0.002869
19.185181	17.604370	0.004150
19.199829	17.642822	0.003204
19.215088	17.674561	0.004150
19.229736	17.693481	0.003845
19.244995	17.699585	0.004150
19.260254	17.744751	0.004791
19.274902	17.756958	0.003204
19.290161	17.750854	0.003204
19.304810	17.782593	0.003510
19.320068	17.782593	0.003845
19.334717	17.795410	0.003845
19.349976	17.782593	0.003510
19.365234	17.801514	0.004150
19.379883	17.858887	0.004791
19.395142	17.846680	0.004456
19.409790	17.852783	0.002563
19.425049	17.897339	0.004456
19.439697	17.878418	0.004456
19.454956	17.935791	0.004150
19.470215	17.941895	0.005096
19.484863	17.929077	0.003845
19.500122	17.954712	0.003204
19.514771	17.967529	0.002563
19.530029	17.986450	0.003510
19.545288	18.005371	0.003845
19.559937	18.031006	0.003510
19.575195	18.043823	0.002563
19.589844	18.037720	0.003845
19.605103	18.062744	0.003845
19.619751	18.056641	0.002563
19.635010	18.082275	0.003845
19.650269	18.088379	0.004150
19.664917	18.114014	0.003845
19.680176	18.145752	0.003204
19.694824	18.126831	0.004150
19.710083	18.177490	0.003510
19.724731	18.171387	0.002563
19.739990	18.184204	0.005096
19.755249	18.209839	0.003510
19.769897	18.228760	0.003204
19.785156	18.266602	0.002869
19.799805	18.247681	0.003204
19.815063	18.241577	0.004150
19.829712	18.286133	0.004791
19.844971	18.305054	0.003845
19.860229	18.298950	0.003204
19.874878	18.317871	0.001923
19.890137	18.343506	0.004150
19.904785	18.356323	0.002563
19.920044	18.375244	0.003510
19.935303	18.394165	0.004791
19.949951	18.413696	0.002228
19.965210	18.432617	0.003204
19.979858	18.445435	0.003845
19.995117	18.470459	0.004791
20.009766	18.477173	0.003845
20.025024	18.489990	0.003204
20.040283	18.508911	0.002563
20.054932	18.540649	0.003204
20.070190	18.508911	0.003510
20.084839	18.534546	0.003845
20.100098	18.540649	0.004456
20.114746	18.598022	0.004150
20.130005	18.585205	0.005096
20.145264	18.604736	0.004150
20.159912	18.604736	0.004150
20.175171	18.636475	0.003510
20.189819	18.642578	0.004456
20.205078	18.681030	0.004150
20.219727	18.668213	0.004791
20.234985	18.712769	0.003845
20.250244	18.699951	0.003845
20.264893	18.731689	0.003204
20.280151	18.764038	0.004791
20.294800	18.764038	0.004150
20.310059	18.782959	0.005432
20.324707	18.770142	0.004456
20.339966	18.801880	0.003845
20.355225	18.801880	0.004456
20.369873	18.840332	0.004791
20.385132	18.814697	0.003845
20.399780	18.853149	0.004150
20.415039	18.859253	0.003204
20.430298	18.903809	0.003845
20.444946	18.910522	0.004150
20.460205	18.910522	0.004150
20.474854	18.923340	0.003845
20.490112	18.948364	0.003204
20.504761	18.955078	0.002869
20.520020	18.992920	0.003510
20.535278	18.973999	0.003845
20.549927	19.018555	0.003204
20.565186	19.037476	0.003845
20.579834	19.005737	0.003204
20.595093	19.037476	0.004150
20.609741	19.088745	0.004456
20.625000	19.044189	0.003845
20.640259	19.101562	0.002563
20.654907	19.094849	0.003510
20.670166	19.120483	0.003510
20.684814	19.107666	0.002869
20.700073	19.152222	0.001923
20.714722	19.190674	0.004791
20.729980	19.203491	0.004456
20.745239	19.209595	0.004456
20.759888	19.190674	0.004791
20.775146	19.222412	0.005096
20.789795	19.235229	0.004150
20.805054	19.266968	0.004150
20.819702	19.331055	0.004791
20.834961	19.298706	0.005096
20.850220	19.298706	0.001923
20.864868	19.292603	0.003204
20.880127	19.318237	0.003510
20.894775	19.343872	0.002563
20.910034	19.368896	0.002869
20.925293	19.413452	0.002563
20.939941	19.381714	0.004150
20.955200	19.407349	0.001587
20.969849	19.413452	0.003510
20.985107	19.413452	0.004456
20.999756	19.470825	0.004456
21.015015	19.477539	0.004791
21.030273	19.490356	0.004150
21.044922	19.522095	0.003845
21.060181	19.515381	0.004456
21.074829	19.541016	0.002563
21.090088	19.559937	0.003510
21.104736	19.559937	0.002563
21.119995	19.592285	0.003845
21.135254	19.611206	0.003510
21.149902	19.617310	0.003845
21.165161	19.611206	0.003845
21.179810	19.642944	0.003510
21.195068	19.636841	0.004456
21.209717	19.668579	0.003510
21.224976	19.713135	0.002869
21.240234	19.725952	0.003845
21.254883	19.713135	0.003845
21.270142	19.732056	0.003845
21.284790	19.751587	0.004150
21.300049	19.757690	0.003510
21.314697	19.763794	0.003204
21.329956	19.776611	0.002228
21.345215	19.789429	0.004456
21.359863	19.821167	0.004456
21.375122	19.859619	0.002563
21.389771	19.833984	0.003845
21.405029	19.872437	0.004150
21.420288	19.898071	0.004456
21.434937	19.898071	0.003845
21.450195	19.916992	0.004150
21.464844	19.923096	0.003845
21.480103	19.955444	0.004456
21.494751	19.961548	0.004150
21.510010	19.993286	0.004456
21.525269	19.987183	0.004150
21.539917	19.980469	0.002563
21.555176	19.993286	0.003510
21.569824	20.037842	0.003845
21.585083	20.012817	0.003510
21.599731	20.069580	0.001282
21.614990	20.076294	0.003204
21.630249	20.069580	0.002563
21.644897	20.095215	0.003845
21.660156	20.082397	0.004150
21.674805	20.126953	0.004456
21.690063	20.191040	0.003845
21.704712	20.165405	0.004456
21.719971	20.165405	0.002869
21.735229	20.228882	0.003510
21.749878	20.228882	0.002563
21.765137	20.248413	0.003204
21.779785	20.241699	0.002563
21.795044	20.267334	0.003845
21.810303	20.286255	0.002563
21.824951	20.261230	0.004150
21.840210	20.337524	0.002228
21.854858	20.330811	0.003204
21.870117	20.363159	0.004456
21.884766	20.363159	0.003510
21.900024	20.356445	0.003204
21.915283	20.394897	0.005096
21.929932	20.388184	0.003510
21.945190	20.407715	0.004456
21.959839	20.432739	0.004150
21.975098	20.420532	0.003204
21.989746	20.413818	0.003510
22.005005	20.465088	0.002563
22.020264	20.484009	0.002869
22.034912	20.528564	0.004456
22.050171	20.534668	0.003510
22.064819	20.534668	0.003204
22.080078	20.522461	0.005096
22.094727	20.573120	0.003845
22.109985	20.522461	0.004150
22.125244	20.592041	0.002869
22.139893	20.630493	0.003510
22.155151	20.643311	0.002869
22.169800	20.649414	0.004150
22.185059	20.662231	0.005432
22.199707	20.643311	0.004150
22.214966	20.668945	0.004150
22.230225	20.681763	0.003510
22.244873	20.700684	0.003204
22.260132	20.732422	0.004150
22.274780	20.751343	0.004150
22.290039	20.751343	0.004456
22.305298	20.745239	0.003204
22.319946	20.789795	0.003845
22.335205	20.783691	0.003845
22.349854	20.789795	0.003845
22.365112	20.789795	0.003204
22.379761	20.840454	0.004150
22.395020	20.840454	0.004150
22.410278	20.872803	0.004791
22.424927	20.904541	0.003845
22.440186	20.897827	0.004150
22.454834	20.859985	0.003204
22.470093	20.910645	0.003510
22.484741	20.917358	0.002228
22.500000	20.961914	0.003510
22.515259	20.974731	0.003204
22.529907	20.968018	0.004150
22.545166	20.980835	0.004150
22.559814	21.019287	0.003845
22.575073	21.019287	0.003204
22.589722	21.063843	0.002228
22.604980	21.069946	0.004791
22.620239	21.063843	0.004150
22.634888	21.082764	0.004150
22.650146	21.076660	0.003845
22.664795	21.146240	0.002563
22.680054	21.159058	0.004150
22.694702	21.152954	0.003204
22.709961	21.159058	0.003510
22.725220	21.178589	0.003204
22.739868	21.197510	0.003510
22.755127	21.203613	0.003204
22.769775	21.210327	0.004456
22.785034	21.223145	0.004150
22.800293	21.248169	0.004791
22.814941	21.248169	0.005096
22.830200	21.299438	0.005737
22.844849	21.260986	0.004456
22.860107	21.318359	0.004456
22.874756	21.305542	0.003510
22.890015	21.337891	0.003845
22.905273	21.337891	0.004150
22.919922	21.369629	0.004150
22.935181	21.395264	0.004150
22.949829	21.414185	0.003845
22.965088	21.433105	0.003845
22.979736	21.427002	0.004150
22.994995	21.445923	0.003845
23.010254	21.445923	0.003845
23.024902	21.433105	0.003845
23.040161	21.477661	0.003510
23.054810	21.522217	0.005096
23.070068	21.497192	0.003845
23.084717	21.554565	0.004150
23.099976	21.541748	0.003204
23.115234	21.579590	0.003510
23.129883	21.573486	0.003510
23.145142	21.605225	0.001282
23.159790	21.599121	0.003845
23.175049	21.605225	0.005432
23.189697	21.630859	0.002228
23.204956	21.656494	0.003204
23.220215	21.701050	0.003845
23.234863	21.662598	0.005432
23.250122	21.726074	0.002563
23.264771	21.688232	0.004150
23.280029	21.745605	0.004150
23.295288	21.745605	0.003510
23.309937	21.751709	0.003204
23.325195	21.777344	0.004791
23.339844	21.764526	0.004791
23.355103	21.770630	0.004150
23.369751	21.796265	0.003845
23.385010	21.796265	0.003845
23.400269	21.860352	0.004456
23.414917	21.860352	0.003204
23.430176	21.898193	0.002869
23.444824	21.885376	0.003204
23.460083	21.911011	0.004150
23.474731	21.942749	0.004456
23.489990	21.955566	0.003510
23.505249	21.974487	0.004456
23.519897	21.962280	0.004150
23.535156	21.962280	0.004456
23.549805	22.012939	0.005432
23.565063	22.000122	0.003845
23.579712	22.038574	0.003845
23.594971	22.051392	0.003204
23.610229	22.057495	0.005432
23.624878	22.064209	0.004150
23.640137	22.070312	0.003845
23.654785	22.076416	0.004456
23.670044	22.146606	0.003204
23.685303	22.140503	0.002869
23.699951	22.146606	0.003204
23.715210	22.166138	0.003510
23.729858	22.166138	0.004150
23.745117	22.166138	0.004150
23.759766	22.242432	0.003845
23.775024	22.242432	0.003204
23.790283	22.248535	0.004791
23.804932	22.242432	0.004456
23.820190	22.274170	0.003845
23.834839	22.268066	0.003204
23.850098	22.286987	0.002563
23.864746	22.325439	0.002563
23.880005	22.325439	0.005096
23.895264	22.350464	0.003204
23.909912	22.369995	0.005432
23.925171	22.401733	0.003845
23.939819	22.382202	0.003845
23.955078	22.395020	0.003204
23.969727	22.427368	0.004456
23.984985	22.459106	0.004456
24.000244	22.452393	0.004456
24.014893	22.478027	0.003510
24.030151	22.490845	0.003204
24.044800	22.490845	0.003845
24.060059	22.516479	0.003845
24.074707	22.535400	0.003845
24.089966	22.561035	0.002869
24.105225	22.548218	0.004791
24.119873	22.561035	0.002563
24.135132	22.598877	0.003510
24.149780	22.567139	0.003845
24.165039	22.631226	0.004150
24.180298	22.650146	0.003510
24.194946	22.598877	0.004456
24.210205	22.675781	0.004456
24.224854	22.681885	0.004791
24.240112	22.694702	0.005432
24.254761	22.694702	0.003204
24.270020	22.700806	0.002563
24.285278	22.733154	0.002563
24.299927	22.758179	0.004456
24.315186	22.764893	0.004150
24.329834	22.783813	0.004456
24.345093	22.802734	0.004456
24.359741	22.802734	0.002869
24.375000	22.860107	0.003845
24.390259	22.828369	0.004150
24.404907	22.879639	0.003204
24.420166	22.860107	0.003845
24.434814	22.885742	0.004456
24.450073	22.904663	0.004150
24.464722	22.898560	0.004150
24.479980	22.924194	0.002563
24.495239	22.937012	0.002869
24.509888	22.924194	0.005432
24.525146	22.987671	0.003845
24.539795	22.987671	0.003845
24.555054	23.026123	0.003845
24.569702	23.006592	0.003845
24.584961	23.038940	0.003204
24.600220	23.057861	0.004150
24.614868	23.076782	0.003845
24.630127	23.083496	0.002869
24.644775	23.121338	0.002563
24.660034	23.096313	0.003845
24.675293	23.146973	0.003510
24.689941	23.134155	0.004150
24.705200	23.146973	0.002869
24.719849	23.153076	0.003204
24.735107	23.198242	0.003510
24.749756	23.198242	0.002563
24.765015	23.242798	0.002228
24.780273	23.236084	0.004150
24.794922	23.267822	0.002228
24.810181	23.261719	0.003510
24.824829	23.293457	0.003204
24.840088	23.300171	0.004150
24.854736	23.300171	0.004150
24.869995	23.312378	0.004150
24.885254	23.369751	0.004456
24.899902	23.338013	0.003845
24.915161	23.376465	0.004791
24.929810	23.357544	0.003510
24.945068	23.389282	0.003510
24.959717	23.427124	0.002869
24.974976	23.427124	0.002228
24.990234	23.465576	0.004791
25.004883	23.465576	0.003845
25.020142	23.471680	0.003845
25.034790	23.504028	0.004456
25.050049	23.478394	0.003845
25.064697	23.497314	0.003845
25.079956	23.529053	0.004150
25.095215	23.573608	0.003510
25.109863	23.586426	0.003845
25.125122	23.605957	0.003845
25.139771	23.580322	0.004150
25.155029	23.605957	0.004456
25.170288	23.643799	0.003204
25.184937	23.624878	0.003204
25.200195	23.650513	0.004456
25.214844	23.688354	0.003845
25.230103	23.701172	0.003204
25.244751	23.682251	0.003845
25.260010	23.720093	0.004150
25.275269	23.726807	0.005432
25.289917	23.707886	0.003204
25.305176	23.771362	0.004456
25.319824	23.777466	0.001923
25.335083	23.803101	0.005432
25.349731	23.828735	0.003845
25.364990	23.822021	0.004150
25.380249	23.867187	0.004791
25.394897	23.841553	0.003845
25.410156	23.886108	0.001923
25.424805	23.873291	0.004791
25.440063	23.892212	0.004456
25.454712	23.930664	0.004456
25.469971	23.949585	0.004150
25.485229	23.943481	0.004150
25.499878	23.943481	0.004456
25.515137	23.949585	0.004456
25.529785	23.994141	0.004150
25.545044	23.994141	0.003204
25.560303	24.019775	0.004456
25.574951	24.064331	0.003204
25.590210	24.077148	0.005432
25.604858	24.096069	0.004150
25.620117	24.051514	0.003204
25.634766	24.064331	0.001587
25.650024	24.128418	0.003204
25.665283	24.140625	0.004456
25.679932	24.153442	0.005096
25.695190	24.153442	0.004791
25.709839	24.115601	0.003845
25.725098	24.179077	0.004150
25.739746	24.191895	0.004150
25.755005	24.204712	0.003204
25.770264	24.217529	0.003845
25.784912	24.262085	0.003204
25.800171	24.262085	0.003510
25.814819	24.268188	0.003845
25.830078	24.287109	0.004456
25.844727	24.281006	0.003845
25.859985	24.262085	0.004456
25.875244	24.319458	0.005432
25.889893	24.357300	0.003510
25.905151	24.357300	0.003845
25.919800	24.395752	0.003845
25.935059	24.370117	0.003845
25.949707	24.446411	0.002563
25.964966	24.408569	0.003204
25.980225	24.465942	0.003510
25.994873	24.446411	0.003510
26.010132	24.478760	0.003204
26.024780	24.503784	0.004150
26.040039	24.510498	0.003510
26.055298	24.497681	0.003510
26.069946	24.510498	0.001587
26.085205	24.542236	0.005096
26.099854	24.548340	0.003510
26.115112	24.593506	0.004150
26.129761	24.567871	0.003204
26.145020	24.618530	0.004150
26.160278	24.625244	0.003510
26.174927	24.631348	0.005432
26.190186	24.650269	0.003510
26.204834	24.638062	0.004150
26.220093	24.688721	0.003845
26.234741	24.701538	0.004456
26.250000	24.707642	0.003845
26.265259	24.707642	0.004150
26.279907	24.727173	0.003510
26.295166	24.739990	0.002869
26.309814	24.771729	0.003510
26.325073	24.720459	0.003204
26.339722	24.765015	0.003204
26.354980	24.816284	0.004150
26.370239	24.822388	0.003204
26.384888	24.841919	0.003204
26.400146	24.841919	0.005096
26.414795	24.866943	0.002869
26.430054	24.866943	0.004456
26.444702	24.905396	0.005096
26.459961	24.949951	0.003510
26.475220	24.918213	0.004791
26.489868	24.924316	0.004456
26.505127	24.988403	0.003510
26.519775	24.968872	0.001587
26.535034	24.968872	0.003204
26.550293	25.020142	0.003845
26.564941	25.026245	0.003845
26.580200	25.032959	0.003204
26.594849	25.057983	0.004150
26.610107	25.090332	0.003845
26.624756	25.077515	0.004150
26.640015	25.083618	0.004150
26.655273	25.109253	0.004150
26.669922	25.109253	0.004791
26.685181	25.134888	0.004150
26.699829	25.172729	0.005096
26.715088	25.172729	0.003845
26.729736	25.179443	0.005737
26.744995	25.185547	0.004150
26.760254	25.223999	0.003510
26.774902	25.217285	0.003845
26.790161	25.249634	0.003510
26.804810	25.274658	0.004150
26.820068	25.287476	0.002869
26.834717	25.313110	0.003845
26.849976	25.300293	0.004791
26.865234	25.344849	0.003510
26.879883	25.325928	0.003204
26.895142	25.338745	0.002563
26.909790	25.344849	0.004150
26.925049	25.376587	0.003845
26.939697	25.383301	0.003845
26.954956	25.389404	0.004456
26.970215	25.421143	0.002563
26.984863	25.459595	0.003510
27.000122	25.396118	0.004456
27.014771	25.466309	0.002869
27.030029	25.504150	0.003204
27.045288	25.504150	0.004150
27.059937	25.529785	0.003510
27.075195	25.548706	0.002563
27.089844	25.555420	0.003845
27.105103	25.529785	0.002869
27.119751	25.555420	0.004150
27.135010	25.625000	0.001923
27.150269	25.593262	0.004791
27.164917	25.618896	0.002228
27.180176	25.606079	0.004150
27.194824	25.644531	0.003845
27.210083	25.650635	0.004791
27.224731	25.676270	0.003510
27.239990	25.682373	0.003510
27.255249	25.733643	0.003510
27.269897	25.746460	0.001587
27.285156	25.726929	0.004150
27.299805	25.778198	0.003510
27.315063	25.746460	0.003204
27.329712	25.772095	0.003845
27.344971	25.822754	0.004150
27.360229	25.809937	0.003510
27.374878	25.822754	0.004150
27.390137	25.854492	0.003845
27.404785	25.841675	0.003204
27.420044	25.841675	0.003204
27.435303	25.848389	0.002869
27.449951	25.924683	0.005432
27.465210	25.899048	0.002869
27.479858	25.975952	0.004791
27.495117	25.924683	0.001923
27.509766	25.937500	0.001923
27.525024	26.007690	0.002869
27.540283	25.969238	0.003845
27.554932	25.988159	0.002869
27.570190	26.033325	0.004456
27.584839	26.007690	0.003845
27.600098	26.039429	0.004150
27.614746	26.077881	0.004150
27.630005	26.077881	0.004150
27.645264	26.096802	0.003845
27.659912	26.096802	0.004150
27.675171	26.115723	0.002869
27.689819	26.135254	0.004791
27.705078	26.154175	0.002228
27.719727	26.141357	0.003204
27.734985	26.179810	0.004150
27.750244	26.179810	0.001923
27.764893	26.224365	0.004150
27.780151	26.230469	0.004456
27.794800	26.217651	0.004150
27.810059	26.224365	0.004150
27.824707	26.268921	0.004150
27.839966	26.287842	0.003845
27.855225	26.262207	0.003845
27.869873	26.358032	0.003204
27.885132	26.300659	0.002869
27.899780	26.332397	0.003510
27.915039	26.364136	0.003845
27.930298	26.395874	0.003510
27.944946	26.402588	0.003845
27.960205	26.408691	0.004150
27.974854	26.447144	0.003510
27.990112	26.434326	0.005096
28.004761	26.478882	0.004150
28.020020	26.472778	0.003510
28.035278	26.491699	0.003204
28.049927	26.510620	0.003510
28.065186	26.542969	0.003845
28.079834	26.549072	0.003204
28.095093	26.523437	0.003845
28.109741	26.561890	0.002563
28.125000	26.561890	0.003845
28.140259	26.587524	0.003204
28.154907	26.632080	0.003510
28.170166	26.651001	0.002228
28.184814	26.632080	0.003845
28.200073	26.651001	0.004456
28.214722	26.638184	0.003845
28.229980	26.682739	0.004150
28.245239	26.695557	0.005432
28.259888	26.714478	0.002869
28.275146	26.746826	0.004456
28.289795	26.740112	0.003510
28.305054	26.740112	0.004150
28.319702	26.759033	0.002869
28.334961	26.804199	0.003845
28.350220	26.778564	0.003845
28.364868	26.842041	0.002869
28.380127	26.835937	0.003845
28.394775	26.867676	0.003204
28.410034	26.854858	0.003845
28.425293	26.893311	0.003510
28.439941	26.906128	0.003845
28.455200	26.873779	0.004150
28.469849	26.925049	0.003204
28.485107	26.925049	0.003510
28.499756	26.956787	0.004150
28.515015	26.943970	0.003845
28.530273	26.956787	0.004456
28.544922	26.975708	0.003845
28.560181	27.014160	0.003510
28.574829	27.033081	0.002228
28.590088	27.039795	0.002563
28.604736	27.052612	0.003845
28.619995	27.084351	0.000977
28.635254	27.077637	0.003845
28.649902	27.109985	0.002869
28.665161	27.103271	0.003510
28.679810	27.141724	0.004150
28.695068	27.135010	0.004456
28.709717	27.167358	0.003510
28.724976	27.186279	0.004456
28.740234	27.179565	0.003510
28.754883	27.211914	0.004150
28.770142	27.218018	0.003845
28.784790	27.243652	0.001923
28.800049	27.262573	0.003510
28.814697	27.262573	0.003845
28.829956	27.269287	0.004150
28.845215	27.288208	0.004150
28.859863	27.301025	0.003510
28.875122	27.326050	0.002869
28.889771	27.307129	0.004456
28.905029	27.371216	0.002563
28.920288	27.338867	0.002869
28.934937	27.409058	0.002869
28.950195	27.409058	0.002563
28.964844	27.409058	0.004150
28.980103	27.447510	0.003204
28.994751	27.434692	0.004150
29.010010	27.447510	0.003204
29.025269	27.460327	0.003204
29.039917	27.504883	0.003510
29.055176	27.517700	0.002869
29.069824	27.536621	0.003845
29.085083	27.555542	0.004150
29.099731	27.542725	0.003845
29.114990	27.549438	0.004456
29.130249	27.575073	0.003204
29.144897	27.612915	0.003204
29.160156	27.619629	0.002869
29.174805	27.638550	0.004150
29.190063	27.657471	0.003510
29.204712	27.664185	0.004791
29.219971	27.677002	0.005737
29.235229	27.677002	0.003510
29.249878	27.702026	0.003510
29.265137	27.689209	0.003204
29.279785	27.766113	0.004150
29.295044	27.753296	0.002563
29.310303	27.746582	0.004456
29.324951	27.785034	0.003204
29.340210	27.797852	0.004150
29.354858	27.810669	0.003204
29.370117	27.836304	0.002228
29.384766	27.848511	0.003510
29.400024	27.861328	0.004150
29.415283	27.842407	0.004150
29.429932	27.861328	0.003510
29.445190	27.905884	0.005096
29.459839	27.938232	0.002869
29.475098	27.912598	0.004456
29.489746	27.899780	0.003845
29.505005	27.931519	0.002869
29.520264	27.988892	0.003845
29.534912	27.950439	0.004791
29.550171	28.007812	0.004791
29.564819	28.014526	0.004456
29.580078	28.052368	0.003845
29.594727	28.033447	0.003845
29.609985	28.084717	0.003510
29.625244	28.103638	0.004456
29.639893	28.103638	0.003510
29.655151	28.103638	0.004791
29.669800	28.116455	0.005432
29.685059	28.142090	0.003510
29.699707	28.148193	0.005096
29.714966	28.154297	0.003204
29.730225	28.186646	0.003204
29.744873	28.198853	0.003204
29.760132	28.256226	0.002563
29.774780	28.237305	0.004456
29.790039	28.237305	0.003845
29.805298	28.269043	0.003510
29.819946	28.269043	0.002228
29.835205	28.307495	0.004150
29.849854	28.288574	0.003204
29.865112	28.320312	0.004791
29.879761	28.364868	0.003510
29.895020	28.345947	0.005096
29.910278	28.377686	0.003510
29.924927	28.383789	0.003510
29.940186	28.402710	0.003510
29.954834	28.390503	0.004456
29.970093	28.435059	0.003510
29.984741	28.435059	0.003204
30.000000	28.466797	0.001587
30.015259	28.466797	0.002563
30.029907	28.498535	0.002563
30.045166	28.517456	0.002563
30.059814	28.511353	0.004150
30.075073	28.549805	0.003510
30.089722	28.536987	0.003510
30.104980	28.562012	0.005096
30.120239	28.574829	0.004150
30.134888	28.581543	0.002869
30.150146	28.594360	0.003204
30.164795	28.613281	0.004456
30.180054	28.626099	0.004150
30.194702	28.651733	0.003845
30.209961	28.651733	0.003845
30.225220	28.683472	0.003510
30.239868	28.702393	0.004150
30.255127	28.702393	0.002869
30.269775	28.702393	0.005096
30.285034	28.721313	0.003510
30.300293	28.778687	0.004150
30.314941	28.778687	0.004150
30.330200	28.753662	0.004791
30.344849	28.798218	0.004456
30.360107	28.804321	0.004150
30.374756	28.829956	0.002563
30.390015	28.867798	0.001587
30.405273	28.848877	0.003510
30.419922	28.880615	0.004456
30.435181	28.861694	0.004150
30.449829	28.874512	0.002228
30.465088	28.944702	0.003845
30.479736	28.900146	0.004150
30.494995	28.969727	0.003845
30.510254	28.963623	0.003510
30.524902	29.008179	0.003845
30.540161	28.995361	0.004150
30.554810	29.027100	0.003845
30.570068	28.989258	0.002869
30.584717	29.039917	0.003204
30.599976	29.052734	0.002869
30.615234	29.027100	0.004150
30.629883	29.071655	0.002563
30.645142	29.065552	0.003204
30.659790	29.065552	0.002563
30.675049	29.110107	0.003204
30.689697	29.122925	0.003204
30.704956	29.167480	0.004150
30.720215	29.193115	0.003510
30.734863	29.199219	0.003510
30.750122	29.199219	0.002563
30.764771	29.224854	0.003845
30.780029	29.250488	0.003510
30.795288	29.263306	0.004791
30.809937	29.288330	0.003845
30.825195	29.288330	0.002869
30.839844	29.276123	0.004150
30.855103	29.332886	0.002563
30.869751	29.339600	0.001587
30.885010	29.358521	0.003204
30.900269	29.378052	0.003510
30.914917	29.384155	0.002563
30.930176	29.384155	0.004150
30.944824	29.390259	0.003845
30.960083	29.396973	0.004150
30.974731	29.428711	0.003845
30.989990	29.441528	0.004150
31.005249	29.460449	0.004456
31.019897	29.492187	0.004150
31.035156	29.473267	0.001587
31.049805	29.524536	0.001923
31.065063	29.511719	0.004150
31.079712	29.543457	0.003510
31.094971	29.556274	0.003204
31.110229	29.549561	0.001923
31.124878	29.569092	0.003510
31.140137	29.594116	0.004791
31.154785	29.594116	0.004791
31.170044	29.594116	0.003845
31.185303	29.600830	0.003845
31.199951	29.677124	0.003510
31.215210	29.664307	0.004150
31.229858	29.683838	0.004150
31.245117	29.677124	0.003204
31.259766	29.734497	0.002563
31.275024	29.702759	0.003204
31.290283	29.747314	0.003510
31.304932	29.753418	0.004150
31.320190	29.772949	0.003845
31.334839	29.804687	0.003510
31.350098	29.797974	0.004150
31.364746	29.830322	0.004456
31.380005	29.862061	0.004456
31.395264	29.843140	0.003510
31.409912	29.849243	0.005432
31.425171	29.893799	0.004150
31.439819	29.893799	0.004150
31.455078	29.932251	0.003510
31.469727	29.932251	0.004791
31.484985	29.925537	0.004150
31.500244	29.957275	0.003510
31.514893	29.982910	0.002563
31.530151	30.027466	0.003510
31.544800	29.976807	0.004456
31.560059	30.014648	0.003204
31.574707	30.008545	0.003845
31.589966	30.034180	0.004150
31.605225	30.065918	0.003845
31.619873	30.053101	0.003510
31.635132	30.078735	0.004150
31.649780	30.084839	0.004456
31.665039	30.116577	0.003845
31.680298	30.136108	0.004150
31.694946	30.155029	0.003510
31.710205	30.155029	0.005737
31.724854	30.167847	0.003204
31.740112	30.180664	0.004150
31.754761	30.218506	0.003845
31.770020	30.180664	0.004456
31.785278	30.238037	0.004150
31.799927	30.263062	0.003204
31.815186	30.244141	0.004791
31.829834	30.282593	0.004150
31.845093	30.282593	0.004456
31.859741	30.333252	0.003510
31.875000	30.327148	0.003845
31.890259	30.320435	0.002563
31.904907	30.384521	0.003204
31.920166	30.390625	0.004150
31.934814	30.358887	0.003845
31.950073	30.397339	0.002563
31.964722	30.390625	0.003845
31.979980	30.397339	0.002228
31.995239	30.460815	0.003845
32.009888	30.473633	0.004150
32.025146	30.466919	0.003510
32.039795	30.473633	0.002563
32.055054	30.524292	0.004150
32.069702	30.512085	0.006073
32.084961	30.537109	0.003204
32.100220	30.556641	0.003510
32.114868	30.575562	0.003845
32.130127	30.568848	0.003845
32.144775	30.588379	0.003845
32.160034	30.626221	0.005432
32.175293	30.626221	0.002869
32.189941	30.645752	0.004791
32.205200	30.632935	0.004150
32.219849	30.658569	0.005096
32.235107	30.670776	0.003510
32.249756	30.690308	0.003510
32.265015	30.715942	0.003845
32.280273	30.734863	0.003845
32.294922	30.772705	0.003845
32.310181	30.747681	0.003845
32.324829	30.785522	0.004150
32.340088	30.805054	0.003845
32.354736	30.805054	0.003204
32.369995	30.817871	0.004456
32.385254	30.830078	0.004456
32.399902	30.823975	0.004456
32.415161	30.881348	0.003845
32.429810	30.887451	0.005096
32.445068	30.906982	0.004150
32.459717	30.919800	0.005432
32.474976	30.906982	0.004456
32.490234	30.925903	0.003845
32.504883	30.944824	0.002869
32.520142	31.015015	0.003845
32.534790	30.932007	0.002869
32.550049	31.033936	0.004456
32.564697	31.015015	0.003845
32.579956	31.021729	0.004456
32.595215	31.046753	0.004456
32.609863	31.066284	0.005432
32.625122	31.085205	0.002563
32.639771	31.085205	0.003204
32.655029	31.110840	0.003845
32.670288	31.104126	0.004150
32.684937	31.135864	0.002869
32.700195	31.123657	0.004150
32.714844	31.135864	0.001923
32.730103	31.174316	0.004456
32.744751	31.181030	0.004150
32.760010	31.212769	0.004150
32.775269	31.244507	0.004456
32.789917	31.206055	0.004150
32.805176	31.250610	0.003845
32.819824	31.250610	0.004150
32.835083	31.282959	0.004456
32.849731	31.301880	0.002869
32.864990	31.320801	0.004456
32.880249	31.320801	0.003845
32.894897	31.359253	0.004456
32.910156	31.365356	0.004791
32.924805	31.372070	0.004150
32.940063	31.448364	0.004150
32.954712	31.422729	0.003845
32.969971	31.441650	0.004150
32.985229	31.416626	0.004791
32.999878	31.461182	0.004456
33.015137	31.454468	0.003845
33.029785	31.467285	0.004791
33.045044	31.467285	0.004150
33.060303	31.492920	0.004456
33.074951	31.531372	0.004456
33.090210	31.543579	0.003510
33.104858	31.511841	0.003845
33.120117	31.569214	0.004150
33.134766	31.582031	0.003204
33.150024	31.607666	0.004150
33.165283	31.645508	0.003845
33.179932	31.671143	0.004456
33.195190	31.626587	0.006073
33.209839	31.652222	0.004150
33.225098	31.677856	0.004150
33.239746	31.696777	0.004150
33.255005	31.690674	0.004456
33.270264	31.728516	0.005432
33.284912	31.748047	0.003510
33.300171	31.728516	0.005096
33.314819	31.748047	0.003510
33.330078	31.760254	0.004456
33.344727	31.798706	0.003204
33.359985	31.798706	0.004456
33.375244	31.830444	0.004791
33.389893	31.824341	0.003845
33.405151	31.862183	0.003510
33.419800	31.887817	0.004456
33.435059	31.862183	0.004150
33.449707	31.900635	0.004150
33.464966	31.958008	0.004456
33.480225	31.919556	0.004791
33.494873	31.919556	0.004150
33.510132	31.939087	0.006073
33.524780	31.996460	0.003845
33.540039	31.970825	0.003845
33.555298	32.008667	0.003510
33.569946	32.002563	0.004150
33.585205	32.021484	0.004791
33.599854	32.053833	0.004150
33.615112	32.066040	0.005432
33.629761	32.123413	0.004791
33.645020	32.123413	0.005737
33.660278	32.104492	0.005432
33.674927	32.149048	0.004791
33.690186	32.130127	0.005096
33.704834	32.130127	0.004456
33.720093	32.167969	0.005096
33.734741	32.219238	0.005096
33.750000	32.219238	0.005432
33.765259	32.193604	0.004791
33.779907	32.263794	0.006073
33.795166	32.212524	0.004791
33.809814	32.276611	0.004456
33.825073	32.263794	0.004150
33.839722	32.244873	0.004150
33.854980	32.308350	0.004150
33.870239	32.327271	0.004456
33.884888	32.359619	0.004456
33.900146	32.340088	0.004150
33.914795	32.371826	0.005432
33.930054	32.371826	0.004456
33.944702	32.410278	0.004791
33.959961	32.461548	0.004791
33.975220	32.429199	0.004456
33.989868	32.442017	0.004456
34.005127	32.448730	0.004791
34.019775	32.473755	0.004791
34.035034	32.499390	0.004456
34.050293	32.506104	0.005737
34.064941	32.512207	0.004150
34.080200	32.550659	0.004456
34.094849	32.556763	0.005737
34.110107	32.569580	0.004791
34.124756	32.575684	0.003204
34.140015	32.595215	0.004456
34.155273	32.620850	0.004791
34.169922	32.595215	0.005737
34.185181	32.633057	0.004150
34.199829	32.639771	0.003845
34.215088	32.645874	0.004456
34.229736	32.665405	0.004456
34.244995	32.697144	0.003845
34.260254	32.722778	0.003510
34.274902	32.728882	0.004150
34.290161	32.741699	0.004150
34.304810	32.760620	0.004150
34.320068	32.767334	0.004456
34.334717	32.779541	0.004456
34.349976	32.811890	0.005432
34.365234	32.830811	0.004150
34.379883	32.843628	0.005737
34.395142	32.843628	0.005096
34.409790	32.888184	0.006378
34.425049	32.888184	0.004791
34.439697	32.894287	0.004150
34.454956	32.888184	0.004791
34.470215	32.913818	0.004150
34.484863	32.958374	0.003204
34.500122	32.964478	0.003845
34.514771	32.964478	0.003510
34.530029	32.996216	0.005432
34.545288	33.034668	0.004791
34.559937	33.040771	0.005737
34.575195	33.040771	0.004456
34.589844	33.021851	0.004456
34.605103	33.066406	0.004150
34.619751	33.085937	0.004791
34.635010	33.079224	0.006073
34.650269	33.085937	0.005096
34.664917	33.110962	0.004456
34.680176	33.117676	0.005432
34.694824	33.162231	0.005096
34.710083	33.162231	0.004791
34.724731	33.219604	0.003510
34.739990	33.187866	0.003204
34.755249	33.225708	0.004150
34.769897	33.232422	0.006073
34.785156	33.232422	0.005096
34.799805	33.264160	0.005096
34.815063	33.283081	0.005096
34.829712	33.276978	0.004791
34.844971	33.314819	0.005432
34.860229	33.283081	0.005432
34.874878	33.334351	0.004150
34.890137	33.366089	0.005432
34.904785	33.359375	0.003845
34.920044	33.366089	0.004456
34.935303	33.397827	0.004791
34.949951	33.397827	0.005096
34.965210	33.448486	0.003510
34.979858	33.416748	0.005096
34.995117	33.455200	0.005432
35.009766	33.442383	0.005432
35.025024	33.493652	0.004791
35.040283	33.525391	0.004791
35.054932	33.518677	0.003845
35.070190	33.505859	0.005737
35.084839	33.531494	0.004791
35.100098	33.538208	0.006073
35.114746	33.550415	0.004456
35.130005	33.576050	0.005096
35.145264	33.607788	0.004150
35.159912	33.614502	0.005737
35.175171	33.607788	0.004150
35.189819	33.646240	0.004791
35.205078	33.659058	0.003510
35.219727	33.684692	0.005737
35.234985	33.716431	0.005432
35.250244	33.709717	0.004791
35.264893	33.716431	0.004456
35.280151	33.748169	0.006073
35.294800	33.760986	0.003845
35.310059	33.773804	0.004791
35.324707	33.767090	0.004150
35.339966	33.779907	0.004791
35.355225	33.843994	0.004150
35.369873	33.837280	0.004456
35.385132	33.862915	0.003204
35.399780	33.856812	0.005737
35.415039	33.888550	0.004150
35.430298	33.875732	0.004456
35.444946	33.901367	0.005096
35.460205	33.888550	0.005737
35.474854	33.920288	0.004456
35.490112	33.907471	0.004456
35.504761	33.945923	0.005096
35.520020	33.983765	0.006378
35.535278	34.009399	0.004791
35.549927	33.990479	0.005737
35.565186	33.996582	0.005096
35.579834	34.003296	0.005737
35.595093	34.015503	0.006378
35.609741	34.041138	0.006683
35.625000	34.085693	0.004150
35.640259	34.117432	0.005432
35.654907	34.111328	0.004456
35.670166	34.098511	0.005737
35.684814	34.117432	0.006073
35.700073	34.181519	0.003845
35.714722	34.124146	0.003845
35.729980	34.187622	0.005096
35.745239	34.200439	0.004791
35.759888	34.251709	0.004456
35.775146	34.244995	0.004791
35.789795	34.244995	0.004791
35.805054	34.219360	0.004150
35.819702	34.270630	0.004150
35.834961	34.283447	0.005432
35.850220	34.302368	0.005096
35.864868	34.296265	0.003510
35.880127	34.359741	0.004791
35.894775	34.353638	0.004791
35.910034	34.359741	0.006378
35.925293	34.372559	0.004456
35.939941	34.378662	0.005096
35.955200	34.423828	0.004150
35.969849	34.417114	0.006378
35.985107	34.442749	0.006073
35.999756	34.423828	0.006073
36.015015	34.436035	0.004791
36.030273	34.461670	0.004791
36.044922	34.506226	0.006378
36.060181	34.531860	0.004456
36.074829	34.500122	0.004456
36.090088	34.544678	0.004791
36.104736	34.544678	0.006378
36.119995	34.563599	0.004150
36.135254	34.595337	0.006378
36.149902	34.602051	0.006073
36.165161	34.595337	0.004456
36.179810	34.614868	0.004456
36.195068	34.652710	0.006073
36.209717	34.703979	0.005432
36.224976	34.672241	0.006683
36.240234	34.691162	0.004791
36.254883	34.710083	0.003845
36.270142	34.691162	0.004791
36.284790	34.735718	0.004456
36.300049	34.761353	0.005432
36.314697	34.774170	0.005432
36.329956	34.735718	0.004456
36.345215	34.780273	0.005096
36.359863	34.824829	0.005737
36.375122	34.831543	0.004150
36.389771	34.843750	0.006683
36.405029	34.863281	0.004150
36.420288	34.888306	0.005096
36.434937	34.888306	0.006073
36.450195	34.913940	0.006378
36.464844	34.945679	0.006073
36.480103	34.920654	0.005096
36.494751	34.958496	0.004791
36.510010	34.958496	0.005096
36.525269	34.945679	0.005432
36.539917	34.990845	0.005737
36.555176	34.996948	0.005737
36.569824	35.009766	0.004150
36.585083	35.060425	0.004150
36.599731	35.047607	0.005737
36.614990	35.073242	0.004791
36.630249	35.079956	0.006683
36.644897	35.098877	0.005432
36.660156	35.104980	0.006378
36.674805	35.117798	0.005737
36.690063	35.130615	0.006073
36.704712	35.181885	0.005096
36.719971	35.149536	0.004150
36.735229	35.175171	0.004150
36.749878	35.213623	0.005737
36.765137	35.245361	0.004791
36.779785	35.251465	0.006073
36.795044	35.264282	0.006073
36.810303	35.239258	0.005096
36.824951	35.264282	0.005096
36.840210	35.296631	0.004456
36.854858	35.264282	0.006073
36.870117	35.315552	0.006073
36.884766	35.341187	0.004456
36.900024	35.334473	0.006683
36.915283	35.366211	0.006378
36.929932	35.391846	0.004456
36.945190	35.391846	0.006073
36.959839	35.404663	0.005096
36.975098	35.449219	0.005432
36.989746	35.462036	0.004791
37.005005	35.436401	0.004456
37.020264	35.468140	0.005737
37.034912	35.487671	0.005737
37.050171	35.487671	0.004456
37.064819	35.519409	0.004150
37.080078	35.506592	0.004456
37.094727	35.545044	0.005432
37.109985	35.532227	0.006378
37.125244	35.595703	0.005737
37.139893	35.576782	0.004456
37.155151	35.595703	0.005096
37.169800	35.608521	0.006378
37.185059	35.634155	0.005096
37.199707	35.665894	0.006073
37.214966	35.621338	0.005096
37.230225	35.684814	0.004150
37.244873	35.704346	0.006073
37.260132	35.748901	0.006073
37.274780	35.736084	0.005096
37.290039	35.710449	0.005432
37.305298	35.729370	0.006073
37.319946	35.773926	0.004791
37.335205	35.793457	0.004791
37.349854	35.831299	0.004791
37.365112	35.773926	0.007019
37.379761	35.799561	0.005737
37.395020	35.850830	0.004791
37.410278	35.856934	0.006378
37.424927	35.856934	0.004150
37.440186	35.888672	0.005432
37.454834	35.888672	0.004456
37.470093	35.927124	0.005096
37.484741	35.933228	0.007324
37.500000	35.946045	0.005096
37.515259	35.971680	0.006378
37.529907	35.984497	0.005432
37.545166	35.958862	0.005737
37.559814	35.990601	0.005737
37.575073	35.984497	0.006378
37.589722	36.060791	0.005737
37.604980	36.022339	0.004150
37.620239	36.047974	0.004791
37.634888	36.099243	0.005432
37.650146	36.099243	0.006073
37.664795	36.124268	0.003845
37.680054	36.149902	0.005737
37.694702	36.118164	0.005432
37.709961	36.156616	0.007019
37.725220	36.207275	0.004791
37.739868	36.169434	0.006073
37.755127	36.201172	0.006073
37.769775	36.264648	0.006073
37.785034	36.232910	0.006378
37.800293	36.271362	0.005096
37.814941	36.296387	0.005737
37.830200	36.277466	0.004456
37.844849	36.290283	0.005737
37.860107	36.347656	0.004791
37.874756	36.328735	0.006073
37.890015	36.334839	0.005737
37.905273	36.340942	0.005432
37.919922	36.398315	0.004791
37.935181	36.392212	0.005737
37.949829	36.405029	0.005737
37.965088	36.411133	0.005096
37.979736	36.449585	0.005737
37.994995	36.449585	0.005737
38.010254	36.487427	0.007019
38.024902	36.475220	0.007324
38.040161	36.475220	0.006073
38.054810	36.494141	0.005096
38.070068	36.525879	0.005737
38.084717	36.506958	0.004791
38.099976	36.544800	0.005737
38.115234	36.589355	0.006073
38.129883	36.596069	0.003845
38.145142	36.614990	0.005096
38.159790	36.602173	0.004791
38.175049	36.634521	0.004456
38.189697	36.646729	0.004150
38.204956	36.659546	0.006073
38.220215	36.666260	0.005432
38.234863	36.704102	0.006073
38.250122	36.723633	0.007019
38.264771	36.742554	0.006683
38.280029	36.742554	0.007660
38.295288	36.723633	0.005432
38.309937	36.761475	0.006378
38.325195	36.774292	0.005432
38.339844	36.793213	0.004150
38.355103	36.799927	0.006073
38.369751	36.812744	0.003845
38.385010	36.850586	0.005096
38.400269	36.831665	0.006378
38.414917	36.870117	0.005737
38.430176	36.876221	0.004791
38.444824	36.933594	0.005432
38.460083	36.920776	0.005737
38.474731	36.914673	0.005432
38.489990	36.946411	0.006073
38.505249	36.984863	0.005432
38.519897	36.972046	0.006073
38.535156	36.990967	0.005432
38.549805	37.022705	0.007324
38.565063	37.042236	0.005432
38.579712	37.042236	0.005432
38.594971	37.035522	0.004456
38.610229	37.035522	0.005737
38.624878	37.080078	0.006378
38.640137	37.080078	0.005432
38.654785	37.131348	0.006073
38.670044	37.137451	0.005096
38.685303	37.137451	0.004456
38.699951	37.156372	0.006378
38.715210	37.137451	0.005432
38.729858	37.175903	0.006683
38.745117	37.182007	0.004150
38.759766	37.201538	0.005737
38.775024	37.226562	0.005096
38.790283	37.265015	0.006683
38.804932	37.246094	0.002869
38.820190	37.290649	0.006378
38.834839	37.290649	0.005432
38.850098	37.303467	0.006683
38.864746	37.309570	0.005737
38.880005	37.328491	0.006378
38.895264	37.328491	0.005432
38.909912	37.366943	0.006378
38.925171	37.354126	0.006073
38.939819	37.379761	0.006683
38.955078	37.443237	0.005737
38.969727	37.405396	0.006073
38.984985	37.430420	0.005432
39.000244	37.430420	0.007019
39.014893	37.456055	0.004791
39.030151	37.487793	0.005096
39.044800	37.519531	0.004791
39.060059	37.539062	0.005737
39.074707	37.526245	0.006378
39.089966	37.545166	0.006073
39.105225	37.557983	0.006378
39.119873	37.564087	0.005096
39.135132	37.576904	0.006378
39.149780	37.602539	0.006683
39.165039	37.576904	0.007019
39.180298	37.621460	0.005737
39.194946	37.647095	0.005737
39.210205	37.672729	0.005737
39.224854	37.659912	0.006378
39.240112	37.672729	0.005096
39.254761	37.685547	0.005737
39.270020	37.730103	0.006683
39.285278	37.730103	0.006073
39.299927	37.768555	0.007324
39.315186	37.813110	0.006073
39.329834	37.780762	0.005737
39.345093	37.768555	0.006378
39.359741	37.806396	0.006378
39.375000	37.844849	0.004791
39.390259	37.813110	0.007019
39.404907	37.850952	0.005737
39.420166	37.857666	0.005432
39.434814	37.902222	0.006378
39.450073	37.895508	0.005096
39.464722	37.921143	0.006683
39.479980	37.952881	0.005737
39.495239	37.959595	0.006683
39.509888	37.972412	0.006378
39.525146	37.978516	0.007324
39.539795	37.978516	0.005737
39.555054	38.004150	0.006073
39.569702	38.023071	0.006378
39.584961	38.074341	0.007660
39.600220	38.074341	0.007019
39.614868	38.112183	0.007660
39.630127	38.080444	0.006683
39.644775	38.112183	0.005737
39.660034	38.112183	0.006378
39.675293	38.131104	0.006073
39.689941	38.156738	0.005432
39.705200	38.143921	0.005096
39.719849	38.131104	0.004791
39.735107	38.201294	0.006683
39.749756	38.214111	0.007660
39.765015	38.208008	0.007660
39.780273	38.220825	0.005737
39.794922	38.271484	0.007324
39.810181	38.258667	0.007324
39.824829	38.258667	0.006073
39.840088	38.316040	0.006378
39.854736	38.290405	0.006378
39.869995	38.341675	0.005737
39.885254	38.354492	0.006073
39.899902	38.322754	0.006073
39.915161	38.360596	0.005432
39.929810	38.354492	0.006378
39.945068	38.405151	0.006378
39.959717	38.417969	0.004791
39.974976	38.417969	0.005737
39.990234	38.424683	0.006683
40.004883	38.449707	0.007019
40.020142	38.449707	0.005096
40.034790	38.475342	0.004791
40.050049	38.500977	0.007019
40.064697	38.513794	0.007324
40.079956	38.519897	0.007019
40.095215	38.558350	0.006073
40.109863	38.539429	0.006073
40.125122	38.571167	0.005737
40.139771	38.590088	0.007019
40.155029	38.634644	0.005432
40.170288	38.628540	0.005737
40.184937	38.647461	0.004791
40.200195	38.634644	0.006073
40.214844	38.673096	0.007019
40.230103	38.673096	0.006073
40.244751	38.692017	0.006073
40.260010	38.692017	0.007019
40.275269	38.730469	0.006683
40.289917	38.736572	0.005432
40.305176	38.755493	0.005737
40.319824	38.762207	0.006378
40.335083	38.793945	0.007965
40.349731	38.806763	0.006378
40.364990	38.819580	0.006378
40.380249	38.838501	0.006073
40.394897	38.838501	0.006378
40.410156	38.908691	0.006073
40.424805	38.908691	0.007019
40.440063	38.908691	0.008606
40.454712	38.876953	0.006378
40.469971	38.908691	0.006378
40.485229	38.921509	0.007019
40.499878	38.953247	0.007324
40.515137	38.947144	0.006378
40.529785	39.016724	0.006683
40.545044	38.991699	0.006378
40.560303	39.023437	0.005737
40.574951	39.036255	0.006683
40.590210	39.061279	0.006683
40.604858	39.061279	0.006683
40.620117	39.074097	0.006378
40.634766	39.112549	0.006073
40.650024	39.118652	0.006378
40.665283	39.112549	0.006378
40.679932	39.151001	0.006378
40.695190	39.138184	0.005432
40.709839	39.163208	0.006683
40.725098	39.201660	0.006378
40.739746	39.188843	0.007019
40.755005	39.246216	0.008301
40.770264	39.188843	0.006378
40.784912	39.233398	0.005432
40.800171	39.259033	0.005432
40.814819	39.277954	0.006073
40.830078	39.284668	0.005432
40.844727	39.290771	0.006378
40.859985	39.290771	0.006683
40.875244	39.342041	0.007660
40.889893	39.329224	0.006378
40.905151	39.360962	0.007019
40.919800	39.392700	0.006073
40.935059	39.405518	0.006378
40.949707	39.412231	0.007019
40.964966	39.462891	0.008301
40.980225	39.437256	0.007660
40.994873	39.450073	0.006073
41.010132	39.431152	0.005737
41.024780	39.494629	0.007324
41.040039	39.520264	0.005737
41.055298	39.501343	0.007324
41.069946	39.545898	0.004456
41.085205	39.533081	0.007324
41.099854	39.564819	0.005432
41.115112	39.596558	0.006073
41.129761	39.622192	0.006683
41.145020	39.609375	0.006683
41.160278	39.635010	0.006378
41.174927	39.641113	0.006378
41.190186	39.635010	0.006073
41.204834	39.660645	0.006378
41.220093	39.711304	0.004791
41.234741	39.705200	0.006073
41.250000	39.698486	0.005432
41.265259	39.724121	0.006073
41.279907	39.743042	0.007324
41.295166	39.762573	0.006073
41.309814	39.775391	0.005737
41.325073	39.762573	0.006073
41.339722	39.775391	0.007324
41.354980	39.807129	0.007019
41.370239	39.844971	0.006378
41.384888	39.838867	0.007324
41.400146	39.844971	0.006378
41.414795	39.883423	0.007019
41.430054	39.902344	0.006683
41.444702	39.902344	0.007965
41.459961	39.902344	0.006073
41.475220	39.927979	0.007019
41.489868	39.915161	0.004791
41.505127	39.946899	0.006683
41.519775	39.979248	0.007019
41.535034	40.029907	0.007324
41.550293	39.979248	0.006683
41.564941	40.061646	0.007019
41.580200	40.004272	0.007965
41.594849	40.061646	0.006683
41.610107	40.093384	0.006378
41.624756	40.119019	0.006378
41.640015	40.119019	0.007019
41.655273	40.119019	0.007965
41.669922	40.119019	0.006683
41.685181	40.170288	0.006378
41.699829	40.131836	0.006073
41.715088	40.176392	0.005432
41.729736	40.176392	0.007660
41.744995	40.195312	0.006073
41.760254	40.246582	0.006683
41.774902	40.246582	0.006378
41.790161	40.252686	0.007660
41.804810	40.246582	0.007019
41.820068	40.259399	0.007019
41.834717	40.265503	0.006378
41.849976	40.285034	0.006378
41.865234	40.335693	0.007019
41.879883	40.329590	0.006378
41.895142	40.348511	0.006683
41.909790	40.335693	0.006378
41.925049	40.374146	0.007660
41.939697	40.405884	0.006683
41.954956	40.393066	0.005096
41.970215	40.450439	0.005737
41.984863	40.437622	0.006683
42.000122	40.444336	0.005737
42.014771	40.463257	0.007660
42.030029	40.456543	0.005737
42.045288	40.526733	0.006683
42.059937	40.513916	0.006378
42.075195	40.507812	0.006378
42.089844	40.552368	0.006073
42.105103	40.546265	0.006683
42.119751	40.578003	0.008606
42.135010	40.552368	0.006683
42.150269	40.628662	0.007019
42.164917	40.628662	0.007324
42.180176	40.609741	0.006378
42.194824	40.609741	0.006073
42.210083	40.641479	0.005737
42.224731	40.679932	0.006073
42.239990	40.692749	0.007660
42.255249	40.679932	0.007019
42.269897	40.698853	0.007660
42.285156	40.724487	0.004791
42.299805	40.737305	0.007965
42.315063	40.775146	0.007660
42.329712	40.775146	0.007660
42.344971	40.787964	0.007019
42.360229	40.813599	0.007324
42.374878	40.813599	0.006073
42.390137	40.806885	0.007019
42.404785	40.852051	0.007660
42.420044	40.902710	0.006683
42.435303	40.858154	0.006073
42.449951	40.889893	0.007019
42.465210	40.889893	0.008301
42.479858	40.896606	0.006683
42.495117	40.953979	0.007324
42.509766	40.966187	0.007965
42.525024	40.998535	0.007324
42.540283	40.985718	0.007324
42.554932	41.017456	0.006683
42.570190	41.011353	0.007660
42.584839	41.017456	0.005737
42.600098	41.074829	0.007019
42.614746	41.023560	0.006683
42.630005	41.074829	0.007660
42.645264	41.093750	0.007324
42.659912	41.106567	0.007324
42.675171	41.119385	0.007660
42.689819	41.163940	0.006073
42.705078	41.182861	0.007324
42.719727	41.151123	0.007019
42.734985	41.182861	0.006683
42.750244	41.208496	0.007660
42.764893	41.202393	0.007324
42.780151	41.253052	0.007324
42.794800	41.240234	0.008301
42.810059	41.240234	0.006378
42.824707	41.265869	0.007019
42.839966	41.291504	0.006683
42.855225	41.304321	0.007324
42.869873	41.317139	0.007965
42.885132	41.310425	0.006683
42.899780	41.348877	0.007019
42.915039	41.380615	0.007019
42.930298	41.412354	0.007660
42.944946	41.380615	0.006683
42.960205	41.419067	0.006378
42.974854	41.444092	0.006683
42.990112	41.456909	0.007019
43.004761	41.488647	0.006378
43.020020	41.495361	0.009247
43.035278	41.488647	0.007324
43.049927	41.533203	0.004791
43.065186	41.495361	0.006378
43.079834	41.514282	0.007660
43.095093	41.533203	0.007324
43.109741	41.552734	0.007965
43.125000	41.578369	0.006683
43.140259	41.571655	0.008301
43.154907	41.622925	0.007324
43.170166	41.629028	0.007660
43.184814	41.603394	0.006683
43.200073	41.660767	0.007324
43.214722	41.641846	0.008301
43.229980	41.673584	0.007324
43.245239	41.686401	0.007019
43.259888	41.712036	0.006683
43.275146	41.718140	0.008301
43.289795	41.692505	0.007324
43.305054	41.756592	0.007660
43.319702	41.775513	0.007019
43.334961	41.782227	0.006378
43.350220	41.788330	0.007019
43.364868	41.813965	0.006073
43.380127	41.826782	0.007019
43.394775	41.832886	0.005737
43.410034	41.832886	0.005737
43.425293	41.864624	0.007660
43.439941	41.890259	0.008942
43.455200	41.928711	0.008301
43.469849	41.890259	0.007324
43.485107	41.928711	0.007019
43.499756	41.966553	0.006073
43.515015	41.998291	0.006378
43.530273	42.011108	0.005737
43.544922	41.998291	0.004150
43.560181	41.998291	0.007660
43.574829	42.011108	0.007019
43.590088	42.049561	0.007660
43.604736	42.088013	0.007019
43.619995	42.042847	0.005096
43.635254	42.068481	0.006378
43.649902	42.075195	0.005737
43.665161	42.113037	0.007019
43.679810	42.164307	0.006683
43.695068	42.119751	0.008606
43.709717	42.177124	0.007019
43.724976	42.170410	0.006378
43.740234	42.196045	0.006378
43.754883	42.196045	0.007324
43.770142	42.221680	0.006683
43.784790	42.247314	0.006683
43.800049	42.259521	0.005737
43.814697	42.266235	0.007660
43.829956	42.291870	0.007965
43.845215	42.316895	0.008606
43.859863	42.316895	0.007324
43.875122	42.336426	0.007019
43.889771	42.342529	0.007019
43.905029	42.336426	0.007660
43.920288	42.368164	0.007965
43.934937	42.393799	0.007324
43.950195	42.399902	0.006378
43.964844	42.368164	0.004791
43.980103	42.406006	0.007965
43.994751	42.451172	0.006073
44.010010	42.463379	0.006378
44.025269	42.489014	0.006683
44.039917	42.501831	0.006378
44.055176	42.514648	0.008606
44.069824	42.501831	0.006073
44.085083	42.527466	0.008942
44.099731	42.553101	0.007324
44.114990	42.565308	0.008301
44.130249	42.584839	0.007965
44.144897	42.622681	0.008301
44.160156	42.578125	0.006378
44.174805	42.616577	0.006683
44.190063	42.635498	0.006073
44.204712	42.680054	0.007324
44.219971	42.680054	0.007324
44.235229	42.692871	0.007019
44.249878	42.686768	0.007324
44.265137	42.737427	0.006683
44.279785	42.750244	0.007324
44.295044	42.744141	0.007019
44.310303	42.731323	0.006073
44.324951	42.756958	0.007019
44.340210	42.826538	0.007019
44.354858	42.826538	0.007660
44.370117	42.826538	0.008606
44.384766	42.858887	0.005737
44.400024	42.846069	0.007324
44.415283	42.883911	0.007660
44.429932	42.871094	0.007324
44.445190	42.877808	0.006683
44.459839	42.928467	0.006683
44.475098	42.960815	0.007660
44.489746	42.928467	0.008301
44.505005	42.947998	0.009247
44.520264	42.985840	0.007660
44.534912	42.979736	0.007965
44.550171	43.018188	0.006683
44.564819	43.043213	0.007660
44.580078	43.018188	0.007324
44.594727	43.043213	0.008606
44.609985	43.062744	0.007324
44.625244	43.062744	0.007019
44.639893	43.068848	0.006683
44.655151	43.120117	0.007019
44.669800	43.113403	0.008606
44.685059	43.126221	0.008606
44.699707	43.151855	0.006683
44.714966	43.189697	0.006378
44.730225	43.151855	0.008301
44.744873	43.209229	0.007660
44.760132	43.222046	0.006378
44.774780	43.240967	0.007019
44.790039	43.228149	0.006683
44.805298	43.253784	0.005737
44.819946	43.266602	0.008606
44.835205	43.298340	0.007660
44.849854	43.278809	0.007324
44.865112	43.330078	0.007660
44.879761	43.342896	0.007660
44.895020	43.393555	0.007019
44.910278	43.348999	0.005737
44.924927	43.380737	0.007965
44.940186	43.380737	0.007965
44.954834	43.425903	0.007324
44.970093	43.438110	0.006378
44.984741	43.432007	0.007324
45.000000	43.457642	0.005737
45.015259	43.476562	0.007324
45.029907	43.495483	0.007324
45.045166	43.495483	0.007324
45.059814	43.489380	0.007660
45.075073	43.521118	0.008606
45.089722	43.533936	0.007965
45.104980	43.552856	0.007324
45.120239	43.610229	0.007660
45.134888	43.591309	0.007324
45.150146	43.597412	0.007965
45.164795	43.635864	0.007324
45.180054	43.610229	0.008301
45.194702	43.616943	0.009247
45.209961	43.661499	0.007019
45.225220	43.661499	0.007019
45.239868	43.661499	0.007965
45.255127	43.731689	0.007019
45.269775	43.724976	0.008942
45.285034	43.756714	0.007660
45.300293	43.743896	0.006378
45.314941	43.807983	0.007660
45.330200	43.782349	0.007324
45.344849	43.789062	0.007660
45.360107	43.814087	0.007660
45.374756	43.839722	0.007965
45.390015	43.826904	0.007019
45.405273	43.865356	0.008301
45.419922	43.897095	0.008301
45.435181	43.878174	0.008301
45.449829	43.909912	0.007965
45.465088	43.935547	0.007324
45.479736	43.954468	0.007965
45.494995	43.954468	0.009247
45.510254	43.980103	0.007324
45.524902	43.960571	0.006683
45.540161	43.980103	0.008301
45.554810	43.980103	0.007019
45.570068	44.069214	0.007965
45.584717	44.005127	0.006683
45.599976	44.075317	0.007019
45.615234	44.056396	0.006378
45.629883	44.107056	0.008606
45.645142	44.113770	0.010193
45.659790	44.107056	0.007965
45.675049	44.094849	0.007965
45.689697	44.145508	0.008301
45.704956	44.139404	0.008301
45.720215	44.152222	0.007019
45.734863	44.208984	0.008942
45.750122	44.221802	0.006378
45.764771	44.196777	0.008942
45.780029	44.228516	0.008301
45.795288	44.241333	0.007965
45.809937	44.241333	0.008942
45.825195	44.260254	0.006683
45.839844	44.298706	0.007660
45.855103	44.304810	0.007660
45.869751	44.279175	0.008606
45.885010	44.336548	0.008942
45.900269	44.343262	0.008301
45.914917	44.381104	0.007965
45.930176	44.375000	0.008301
45.944824	44.400635	0.008301
45.960083	44.425659	0.007965
45.974731	44.445190	0.008606
45.989990	44.419556	0.006683
46.005249	44.445190	0.007660
46.019897	44.470215	0.008301
46.035156	44.483032	0.007660
46.049805	44.534302	0.006073
46.065063	44.495850	0.008606
46.079712	44.534302	0.007965
46.094971	44.514771	0.007965
46.110229	44.547119	0.006683
46.124878	44.591675	0.007660
46.140137	44.597778	0.007324
46.154785	44.597778	0.008301
46.170044	44.616699	0.008301
46.185303	44.616699	0.008301
46.199951	44.636230	0.008301
46.215210	44.636230	0.007965
46.229858	44.667969	0.007660
46.245117	44.699707	0.007660
46.259766	44.718628	0.007019
46.275024	44.699707	0.007660
46.290283	44.757080	0.007965
46.304932	44.769897	0.007324
46.320190	44.757080	0.009888
46.334839	44.801636	0.009552
46.350098	44.814453	0.008301
46.364746	44.814453	0.006683
46.380005	44.795532	0.007965
46.395264	44.833374	0.007965
46.409912	44.865723	0.007965
46.425171	44.865723	0.007965
46.439819	44.897461	0.006073
46.455078	44.884644	0.006683
46.469727	44.923096	0.007965
46.484985	44.954834	0.007660
46.500244	44.948120	0.007324
46.514893	44.960937	0.007965
46.530151	44.960937	0.007660
46.544800	44.973755	0.008942
46.560059	45.037231	0.007324
46.574707	45.012207	0.007965
46.589966	45.037231	0.008301
46.605225	45.043945	0.007965
46.619873	45.050049	0.008301
46.635132	45.088501	0.009247
46.649780	45.126953	0.007019
46.665039	45.101318	0.007660
46.680298	45.094604	0.008301
46.694946	45.145874	0.008606
46.710205	45.164795	0.006683
46.724854	45.216064	0.006073
46.740112	45.183716	0.008301
46.754761	45.203247	0.007660
46.770020	45.177612	0.007324
46.785278	45.222168	0.008301
46.799927	45.234985	0.008606
46.815186	45.279541	0.008606
46.829834	45.285645	0.008301
46.845093	45.266724	0.008606
46.859741	45.324097	0.007324
46.875000	45.317993	0.007324
46.890259	45.343018	0.007965
46.904907	45.324097	0.008606
46.920166	45.394287	0.007019
46.934814	45.407104	0.007324
46.950073	45.381470	0.007019
46.964722	45.451660	0.008301
46.979980	45.444946	0.007019
46.995239	45.483398	0.008606
47.009888	45.444946	0.009247
47.025146	45.451660	0.007019
47.039795	45.496216	0.007965
47.055054	45.509033	0.007965
47.069702	45.540771	0.009247
47.084961	45.559692	0.010193
47.100220	45.553589	0.009247
47.114868	45.579224	0.007660
47.130127	45.553589	0.007660
47.144775	45.592041	0.010193
47.160034	45.610962	0.007324
47.175293	45.648804	0.007660
47.189941	45.636597	0.008301
47.205200	45.648804	0.008942
47.219849	45.687256	0.008606
47.235107	45.687256	0.008606
47.249756	45.718994	0.008942
47.265015	45.700073	0.007660
47.280273	45.750732	0.007660
47.294922	45.757446	0.007660
47.310181	45.738525	0.007019
47.324829	45.763550	0.008942
47.340088	45.802002	0.007019
47.354736	45.783081	0.007324
47.369995	45.795898	0.008606
47.385254	45.840454	0.007965
47.399902	45.865479	0.007324
47.415161	45.872192	0.008606
47.429810	45.865479	0.007660
47.445068	45.916748	0.009552
47.459717	45.885010	0.008301
47.474976	45.910034	0.008301
47.490234	45.929565	0.008606
47.504883	45.967407	0.008301
47.520142	45.993042	0.008301
47.534790	45.954590	0.008942
47.550049	45.993042	0.008301
47.564697	46.031494	0.008301
47.579956	46.063232	0.007965
47.595215	46.082153	0.007019
47.609863	46.069336	0.007660
47.625122	46.094971	0.007965
47.639771	46.094971	0.008606
47.655029	46.133423	0.008942
47.670288	46.120605	0.008606
47.684937	46.171265	0.008301
47.700195	46.203613	0.007965
47.714844	46.190796	0.007324
47.730103	46.165161	0.008606
47.744751	46.190796	0.009552
47.760010	46.254272	0.007660
47.775269	46.228638	0.008606
47.789917	46.235352	0.008301
47.805176	46.260986	0.007965
47.819824	46.292725	0.008942
47.835083	46.286011	0.008301
47.849731	46.311646	0.007660
47.864990	46.317749	0.006683
47.880249	46.305542	0.008301
47.894897	46.356201	0.009247
47.910156	46.369019	0.008301
47.924805	46.381836	0.008606
47.940063	46.426392	0.008301
47.954712	46.426392	0.007965
47.969971	46.464844	0.008301
47.985229	46.477051	0.008942
47.999878	46.502686	0.008942
48.015137	46.483765	0.007660
48.029785	46.470947	0.007324
48.045044	46.509399	0.007660
48.060303	46.528320	0.008606
48.074951	46.521606	0.007019
48.090210	46.560059	0.008942
48.104858	46.553955	0.007324
48.120117	46.604614	0.008301
48.134766	46.585693	0.008301
48.150024	46.611328	0.009247
48.165283	46.617432	0.008606
48.179932	46.630249	0.007660
48.195190	46.655884	0.009247
48.209839	46.661987	0.008606
48.225098	46.674805	0.008606
48.239746	46.706543	0.007965
48.255005	46.713257	0.009247
48.270264	46.700439	0.007965
48.284912	46.751099	0.007660
48.300171	46.732178	0.007965
48.314819	46.770630	0.007660
48.330078	46.782837	0.007660
48.344727	46.802368	0.007660
48.359985	46.808472	0.009247
48.375244	46.853027	0.007660
48.389893	46.821289	0.007019
48.405151	46.878662	0.008301
48.419800	46.840210	0.008606
48.435059	46.904297	0.008942
48.449707	46.897583	0.009247
48.464966	46.910400	0.008301
48.480225	46.929932	0.008606
48.494873	46.954956	0.009247
48.510132	46.961670	0.007965
48.524780	46.974487	0.009247
48.540039	47.006226	0.009888
48.555298	47.012329	0.008301
48.569946	47.031860	0.008606
48.585205	47.037964	0.010193
48.599854	47.044067	0.009247
48.615112	47.050781	0.009247
48.629761	47.095337	0.008606
48.645020	47.095337	0.007324
48.660278	47.114258	0.010193
48.674927	47.158813	0.008606
48.690186	47.152710	0.007660
48.704834	47.145996	0.008301
48.720093	47.190552	0.008942
48.734741	47.165527	0.008942
48.750000	47.171631	0.008301
48.765259	47.241821	0.008942
48.779907	47.241821	0.007660
48.795166	47.241821	0.009247
48.809814	47.260742	0.009552
48.825073	47.280273	0.008606
48.839722	47.292480	0.008942
48.854980	47.337646	0.007965
48.870239	47.324829	0.007965
48.884888	47.375488	0.009552
48.900146	47.318115	0.008301
48.914795	47.343750	0.008301
48.930054	47.356567	0.007660
48.944702	47.382202	0.009247
48.959961	47.395020	0.008942
48.975220	47.420044	0.008606
48.989868	47.464600	0.007660
49.005127	47.445679	0.008606
49.019775	47.484131	0.007660
49.035034	47.477417	0.007965
49.050293	47.509155	0.008606
49.064941	47.534790	0.008606
49.080200	47.509155	0.008606
49.094849	47.553711	0.007965
49.110107	47.547607	0.010193
49.124756	47.573242	0.009552
49.140015	47.586060	0.009888
49.155273	47.592163	0.008942
49.169922	47.636719	0.007965
49.185181	47.643433	0.008942
49.199829	47.662354	0.007660
49.215088	47.681274	0.010834
49.229736	47.687988	0.008301
49.244995	47.675171	0.008301
49.260254	47.694092	0.009552
49.274902	47.725830	0.008606
49.290161	47.713013	0.007324
49.304810	47.745361	0.007660
49.320068	47.770386	0.008942
49.334717	47.757568	0.008942
49.349976	47.789917	0.008606
49.365234	47.840576	0.008301
49.379883	47.821655	0.007660
49.395142	47.853394	0.009552
49.409790	47.847290	0.008301
49.425049	47.885132	0.008942
49.439697	47.897949	0.007324
49.454956	47.897949	0.007019
49.470215	47.929687	0.008301
49.484863	47.968140	0.010834
49.500122	47.929687	0.008606
49.514771	47.987061	0.007965
49.530029	47.968140	0.008942
49.545288	47.980957	0.009247
49.559937	48.051147	0.010529
49.575195	48.018799	0.009552
49.589844	48.082886	0.009552
49.605103	48.031616	0.007965
49.619751	48.101807	0.010193
49.635010	48.082886	0.008942
49.650269	48.108521	0.007660
49.664917	48.120728	0.008301
49.680176	48.127441	0.008942
49.694824	48.133545	0.007324
49.710083	48.178101	0.010193
49.724731	48.153076	0.009552
49.739990	48.171997	0.008606
49.755249	48.210449	0.008606
49.769897	48.216553	0.008606
49.785156	48.235474	0.009552
49.799805	48.292847	0.009552
49.815063	48.267822	0.008606
49.829712	48.292847	0.008301
49.844971	48.280029	0.007965
49.860229	48.318481	0.008942
49.874878	48.356934	0.008301
49.890137	48.356934	0.008301
49.904785	48.337402	0.010193
49.920044	48.356934	0.008606
49.935303	48.356934	0.010193
49.949951	48.420410	0.009552
49.965210	48.394775	0.008301
49.979858	48.414307	0.008942
49.995117	48.439331	0.008942
50.009766	48.452148	0.010529
50.025024	48.496704	0.009552
50.040283	48.477783	0.009888
50.054932	48.483887	0.009247
50.070190	48.503418	0.009247
50.084839	48.516235	0.007324
50.100098	48.522339	0.008942
50.114746	48.566895	0.008606
50.130005	48.566895	0.008301
50.145264	48.592529	0.008606
50.159912	48.598633	0.010834
50.175171	48.611450	0.009888
50.189819	48.649902	0.008942
50.205078	48.700562	0.009247
50.219727	48.732910	0.009552
50.234985	48.675537	0.008942
50.250244	48.675537	0.010529
50.264893	48.707275	0.008942
50.280151	48.739014	0.008606
50.294800	48.745117	0.008606
50.310059	48.777466	0.008942
50.324707	48.783569	0.009552
50.339966	48.809204	0.009552
50.355225	48.815308	0.007019
50.369873	48.847046	0.007965
50.385132	48.847046	0.008606
50.399780	48.859863	0.007019
50.415039	48.898315	0.007660
50.430298	48.891602	0.007324
50.444946	48.911133	0.008606
50.460205	48.923950	0.010193
50.474854	48.898315	0.008942
50.490112	48.948975	0.011475
50.504761	48.948975	0.007965
50.520020	48.974609	0.007965
50.535278	48.974609	0.007660
50.549927	48.974609	0.009888
50.565186	48.993530	0.009552
50.579834	49.038696	0.009247
50.595093	49.050903	0.009552
50.609741	49.095459	0.010529
50.625000	49.044800	0.009888
50.640259	49.089355	0.008942
50.654907	49.102173	0.009888
50.670166	49.108276	0.009247
50.684814	49.133911	0.008942
50.700073	49.178467	0.010193
50.714722	49.165649	0.008301
50.729980	49.165649	0.009552
50.745239	49.216919	0.007324
50.759888	49.216919	0.008301
50.775146	49.223022	0.009552
50.789795	49.254761	0.008606
50.805054	49.267578	0.007965
50.819702	49.280396	0.008942
50.834961	49.280396	0.009888
50.850220	49.299316	0.008942
50.864868	49.344482	0.007965
50.880127	49.331665	0.008942
50.894775	49.363403	0.009247
50.910034	49.356689	0.008301
50.925293	49.414062	0.010529
50.939941	49.382324	0.010529
50.955200	49.426880	0.007660
50.969849	49.426880	0.008942
50.985107	49.465332	0.008942
50.999756	49.465332	0.008606
51.015015	49.503784	0.009552
51.030273	49.484253	0.009552
51.044922	49.528809	0.008301
51.060181	49.554443	0.009888
51.074829	49.522705	0.010193
51.090088	49.515991	0.008301
51.104736	49.548340	0.008942
51.119995	49.586182	0.010193
51.135254	49.598999	0.009552
51.149902	49.592896	0.010193
51.165161	49.637451	0.011780
51.179810	49.624634	0.009552
51.195068	49.630737	0.008942
51.209717	49.682007	0.009247
51.224976	49.688110	0.008606
51.240234	49.694824	0.008942
51.254883	49.719849	0.007660
51.270142	49.682007	0.009552
51.284790	49.726562	0.008606
51.300049	49.752197	0.009888
51.314697	49.796753	0.010529
51.329956	49.802856	0.009247
51.345215	49.771118	0.009247
51.359863	49.841309	0.007660
51.375122	49.834595	0.009247
51.389771	49.854126	0.009888
51.405029	49.873047	0.009552
51.420288	49.898682	0.009552
51.434937	49.879150	0.008606
51.450195	49.911499	0.008606
51.464844	49.898682	0.009247
51.480103	49.936523	0.008942
51.494751	49.981079	0.010834
51.510010	49.962158	0.009552
51.525269	49.956055	0.009247
51.539917	49.962158	0.009247
51.555176	50.000610	0.007965
51.569824	50.038452	0.008606
51.585083	50.045166	0.009888
51.599731	50.019531	0.011169
51.614990	50.032349	0.009247
51.630249	50.057983	0.008942
51.644897	50.089722	0.008301
51.660156	50.083008	0.010193
51.674805	50.102539	0.008942
51.690063	50.147095	0.008606
51.704712	50.147095	0.008942
51.719971	50.178833	0.008301
51.735229	50.197754	0.008301
51.749878	50.178833	0.008942
51.765137	50.204468	0.008301
51.779785	50.210571	0.009552
51.795044	50.242310	0.008606
51.810303	50.255127	0.008942
51.824951	50.261841	0.008942
51.840210	50.306396	0.008942
51.854858	50.293579	0.008301
51.870117	50.306396	0.008942
51.884766	50.319214	0.008301
51.900024	50.325317	0.009552
51.915283	50.376587	0.009247
51.929932	50.388794	0.007965
51.945190	50.401611	0.010529
51.959839	50.414429	0.007965
51.975098	50.401611	0.010834
51.989746	50.388794	0.009888
52.005005	50.458984	0.009552
52.020264	50.497437	0.008942
52.034912	50.490723	0.009552
52.050171	50.529175	0.008942
52.064819	50.471802	0.009552
52.080078	50.516357	0.009552
52.094727	50.535278	0.009552
52.109985	50.529175	0.008301
52.125244	50.567627	0.009247
52.139893	50.605469	0.008606
52.155151	50.592651	0.009552
52.169800	50.592651	0.009552
52.185059	50.625000	0.008942
52.199707	50.625000	0.010529
52.214966	50.669556	0.009552
52.230225	50.701294	0.009552
52.244873	50.694580	0.009247
52.260132	50.682373	0.009552
52.274780	50.733032	0.009247
52.290039	50.720215	0.010529
52.305298	50.751953	0.008606
52.319946	50.745850	0.009247
52.335205	50.764771	0.008942
52.349854	50.777588	0.008606
52.365112	50.841675	0.007965
52.379761	50.816040	0.008942
52.395020	50.866699	0.011169
52.410278	50.898437	0.009247
52.424927	50.853882	0.009888
52.440186	50.892334	0.008606
52.454834	50.892334	0.010193
52.470093	50.917969	0.010193
52.484741	50.930786	0.010193
52.500000	50.936890	0.009247
52.515259	50.962524	0.010834
52.529907	50.968628	0.009888
52.545166	51.013184	0.008606
52.559814	51.000366	0.009247
52.575073	51.013184	0.009247
52.589722	51.038818	0.010193
52.604980	51.083374	0.010193
52.620239	51.090088	0.010193
52.634888	51.083374	0.009247
52.650146	51.077271	0.010193
52.664795	51.102295	0.009247
52.680054	51.115112	0.009247
52.694702	51.179199	0.009247
52.709961	51.166382	0.009247
52.725220	51.159668	0.010193
52.739868	51.166382	0.010193
52.755127	51.204224	0.011169
52.769775	51.198120	0.009552
52.785034	51.242676	0.010529
52.800293	51.242676	0.009247
52.814941	51.249390	0.008942
52.830200	51.293945	0.010193
52.844849	51.306763	0.011169
52.860107	51.306763	0.009552
52.874756	51.306763	0.010834
52.890015	51.363525	0.010193
52.905273	51.357422	0.009888
52.919922	51.370239	0.009247
52.935181	51.389160	0.010834
52.949829	51.389160	0.009888
52.965088	51.427612	0.011780
52.979736	51.414795	0.010193
52.994995	51.414795	0.008301
53.010254	51.478271	0.010193
53.024902	51.465454	0.010193
53.040161	51.472168	0.009552
53.054810	51.516724	0.010834
53.070068	51.503906	0.009552
53.084717	51.522827	0.009247
53.099976	51.542358	0.011780
53.115234	51.548462	0.009888
53.129883	51.624756	0.009888
53.145142	51.599731	0.009247
53.159790	51.618652	0.010834
53.175049	51.637573	0.010193
53.189697	51.624756	0.010529
53.204956	51.657104	0.010193
53.220215	51.682129	0.009247
53.234863	51.676025	0.010193
53.250122	51.663208	0.009552
53.264771	51.726685	0.008942
53.280029	51.726685	0.009247
53.295288	51.739502	0.011475
53.309937	51.771240	0.010193
53.325195	51.759033	0.010193
53.339844	51.809692	0.010193
53.355103	51.790771	0.008606
53.369751	51.816406	0.010529
53.385010	51.841431	0.009888
53.400269	51.848145	0.009552
53.414917	51.867065	0.009552
53.430176	51.879883	0.009247
53.444824	51.905518	0.010529
53.460083	51.918335	0.008942
53.474731	51.943359	0.009247
53.489990	51.930542	0.011169
53.505249	51.924438	0.008942
53.519897	51.981812	0.009552
53.535156	51.994629	0.009247
53.549805	52.000732	0.012421
53.565063	52.032471	0.010193
53.579712	52.013550	0.008942
53.594971	52.039185	0.009552
53.610229	52.077637	0.011780
53.624878	52.039185	0.010193
53.640137	52.096558	0.010834
53.654785	52.122192	0.010193
53.670044	52.147217	0.008942
53.685303	52.134399	0.008942
53.699951	52.153931	0.010529
53.715210	52.134399	0.010193
53.729858	52.191772	0.011169
53.745117	52.185669	0.008942
53.759766	52.224121	0.010193
53.775024	52.211304	0.010193
53.790283	52.211304	0.010193
53.804932	52.274780	0.008942
53.820190	52.274780	0.010193
53.834839	52.300415	0.010834
53.850098	52.293701	0.009552
53.864746	52.306519	0.010834
53.880005	52.344971	0.009888
53.895264	52.326050	0.010193
53.909912	52.351074	0.009552
53.925171	52.351074	0.009247
53.939819	52.408447	0.010834
53.955078	52.427979	0.009552
53.969727	52.415161	0.008942
53.984985	52.440186	0.009552
54.000244	52.472534	0.011475
54.014893	52.465820	0.010193
54.030151	52.459717	0.011169
54.044800	52.465820	0.009247
54.060059	52.529907	0.008606
54.074707	52.536011	0.010834
54.089966	52.567749	0.009888
54.105225	52.567749	0.010193
54.119873	52.536011	0.010193
54.135132	52.587280	0.009247
54.149780	52.580566	0.008606
54.165039	52.593384	0.010834
54.180298	52.619019	0.009888
54.194946	52.637939	0.009247
54.210205	52.644653	0.010834
54.224854	52.682495	0.009552
54.240112	52.656860	0.011475
54.254761	52.701416	0.011169
54.270020	52.714233	0.010193
54.285278	52.746582	0.010193
54.299927	52.720947	0.008606
54.315186	52.746582	0.011169
54.329834	52.752686	0.010834
54.345093	52.803345	0.010193
54.359741	52.848511	0.010193
54.375000	52.810059	0.008606
54.390259	52.860718	0.009888
54.404907	52.860718	0.009552
54.420166	52.873535	0.009552
54.434814	52.867432	0.008606
54.450073	52.899170	0.009247
54.464722	52.930908	0.010193
54.479980	52.943726	0.009552
54.495239	52.962646	0.011169
54.509888	52.950439	0.010193
54.525146	52.982178	0.010834
54.539795	52.988281	0.009247
54.555054	52.988281	0.011169
54.569702	53.020020	0.010193
54.584961	53.039551	0.010834
54.600220	53.013916	0.010834
54.614868	53.039551	0.010193
54.630127	53.090210	0.009552
54.644775	53.103027	0.009552
54.660034	53.096924	0.010193
54.675293	53.115845	0.010193
54.689941	53.141479	0.010529
54.705200	53.147583	0.009888
54.719849	53.141479	0.010193
54.735107	53.179321	0.010193
54.749756	53.204956	0.010834
54.765015	53.217773	0.011169
54.780273	53.256226	0.010834
54.794922	53.243408	0.009888
54.810181	53.256226	0.008301
54.824829	53.268433	0.010529
54.840088	53.294067	0.010834
54.854736	53.306885	0.010834
54.869995	53.300781	0.009552
54.885254	53.300781	0.010193
54.899902	53.351440	0.012115
54.915161	53.383179	0.011169
54.929810	53.358154	0.010193
54.945068	53.345337	0.010193
54.959717	53.434448	0.010529
54.974976	53.415527	0.010529
54.990234	53.427734	0.010193
55.004883	53.434448	0.011475
55.020142	53.440552	0.011169
55.034790	53.491821	0.010529
55.050049	53.453369	0.009247
55.064697	53.523560	0.009552
55.079956	53.529663	0.010529
55.095215	53.549194	0.010834
55.109863	53.549194	0.009888
55.125122	53.593750	0.010193
55.139771	53.619385	0.011169
55.155029	53.606567	0.011169
55.170288	53.612671	0.010529
55.184937	53.619385	0.010193
55.200195	53.688965	0.009552
55.214844	53.638306	0.011169
55.230103	53.651123	0.011169
55.244751	53.688965	0.011780
55.260010	53.721313	0.010193
55.275269	53.701782	0.010834
55.289917	53.746338	0.010834
55.305176	53.784790	0.010529
55.319824	53.759155	0.007965
55.335083	53.765869	0.009247
55.349731	53.778076	0.010193
55.364990	53.823242	0.009552
55.380249	53.816528	0.009552
55.394897	53.816528	0.010529
55.410156	53.880005	0.009552
55.424805	53.899536	0.011169
55.440063	53.892822	0.011475
55.454712	53.918457	0.011780
55.469971	53.956909	0.009552
55.485229	53.912354	0.009552
55.499878	53.950195	0.009888
55.515137	53.925171	0.011169
55.529785	53.969727	0.009247
55.545044	53.982544	0.010529
55.560303	54.001465	0.010529
55.574951	54.020386	0.010193
55.590210	54.033203	0.010834
55.604858	54.058838	0.011169
55.620117	54.096680	0.010193
55.634766	54.090576	0.010529
55.650024	54.096680	0.011475
55.665283	54.122314	0.010193
55.679932	54.109497	0.011169
55.695190	54.166870	0.010834
55.709839	54.154053	0.010193
55.725098	54.179687	0.010834
55.739746	54.160767	0.009552
55.755005	54.205322	0.008942
55.770264	54.237061	0.009247
55.784912	54.237061	0.008942
55.800171	54.224243	0.010529
55.814819	54.281616	0.011475
55.830078	54.255981	0.011475
55.844727	54.275513	0.009247
55.859985	54.313354	0.010834
55.875244	54.307251	0.009247
55.889893	54.294434	0.011169
55.905151	54.370728	0.010193
55.919800	54.377441	0.011169
55.935059	54.357910	0.009888
55.949707	54.383545	0.010193
55.964966	54.390259	0.011780
55.980225	54.453735	0.011475
55.994873	54.479370	0.009247
56.010132	54.428101	0.011780
56.024780	54.472656	0.011169
56.040039	54.479370	0.011780
56.055298	54.511108	0.011475
56.069946	54.523926	0.010834
56.085205	54.568481	0.010834
56.099854	54.574585	0.011169
56.115112	54.600220	0.010193
56.129761	54.581299	0.010193
56.145020	54.594116	0.009552
56.160278	54.619141	0.010834
56.174927	54.651489	0.011169
56.190186	54.638672	0.009888
56.204834	54.631958	0.012115
56.220093	54.689331	0.009247
56.234741	54.714966	0.009888
56.250000	54.721069	0.011169
56.265259	54.708252	0.010529
56.279907	54.740601	0.011169
56.295166	54.759521	0.009552
56.309814	54.733887	0.009247
56.325073	54.810181	0.011475
56.339722	54.778442	0.011475
56.354980	54.816895	0.010834
56.370239	54.867554	0.012115
56.384888	54.842529	0.010834
56.400146	54.855347	0.009247
56.414795	54.842529	0.010834
56.430054	54.867554	0.010834
56.444702	54.906006	0.011475
56.459961	54.912109	0.011169
56.475220	54.924927	0.010193
56.489868	54.931641	0.012115
56.505127	54.957275	0.010834
56.519775	54.950562	0.012115
56.535034	54.995117	0.011169
56.550293	55.020752	0.011169
56.564941	55.026855	0.010529
56.580200	55.026855	0.012421
56.594849	55.026855	0.012115
56.610107	55.065308	0.012115
56.624756	55.084229	0.011169
56.640015	55.090942	0.009247
56.655273	55.115967	0.012115
56.669922	55.135498	0.011169
56.685181	55.135498	0.010193
56.699829	55.161133	0.009247
56.715088	55.192871	0.011780
56.729736	55.148315	0.011780
56.744995	55.173340	0.008942
56.760254	55.205688	0.011169
56.774902	55.198975	0.011780
56.790161	55.230713	0.012115
56.804810	55.269165	0.010529
56.820068	55.269165	0.012421
56.834717	55.294800	0.012421
56.849976	55.320435	0.009552
56.865234	55.339355	0.008942
56.879883	55.364990	0.010529
56.895142	55.371094	0.010529
56.909790	55.345459	0.011475
56.925049	55.377197	0.010834
56.939697	55.396729	0.011169
56.954956	55.383911	0.012115
56.970215	55.415649	0.011169
56.984863	55.422363	0.010834
57.000122	55.473022	0.009888
57.014771	55.447388	0.010529
57.030029	55.473022	0.011475
57.045288	55.485840	0.012421
57.059937	55.511475	0.010529
57.075195	55.543213	0.010529
57.089844	55.524292	0.010529
57.105103	55.587769	0.010834
57.119751	55.530396	0.010529
57.135010	55.587769	0.010834
57.150269	55.632324	0.011169
57.164917	55.626221	0.010529
57.180176	55.626221	0.010529
57.194824	55.613403	0.011169
57.210083	55.708618	0.010529
57.224731	55.670776	0.011780
57.239990	55.702515	0.012115
57.255249	55.728149	0.010834
57.269897	55.740356	0.010529
57.285156	55.702515	0.011169
57.299805	55.728149	0.010834
57.315063	55.765991	0.011169
57.329712	55.784912	0.010834
57.344971	55.778809	0.011169
57.360229	55.810547	0.011169
57.374878	55.830078	0.011475
57.390137	55.842285	0.011780
57.404785	55.861816	0.012421
57.420044	55.848999	0.010193
57.435303	55.906372	0.011780
57.449951	55.899658	0.010529
57.465210	55.906372	0.011475
57.479858	55.944214	0.011169
57.495117	55.963745	0.011475
57.509766	55.957031	0.010193
57.525024	55.944214	0.011475
57.540283	55.982666	0.011169
57.554932	56.008301	0.011780
57.570190	56.033936	0.010834
57.584839	56.040039	0.010193
57.600098	56.046143	0.010193
57.614746	56.071777	0.010193
57.630005	56.097412	0.012115
57.645264	56.097412	0.010834
57.659912	56.110229	0.009247
57.675171	56.097412	0.009888
57.689819	56.135864	0.009552
57.705078	56.141968	0.011475
57.719727	56.180420	0.011475
57.734985	56.167603	0.013397
57.750244	56.186523	0.012421
57.764893	56.243896	0.010834
57.780151	56.218262	0.010193
57.794800	56.212158	0.009888
57.810059	56.262817	0.010193
57.824707	56.295166	0.009888
57.839966	56.256714	0.010529
57.855225	56.320190	0.012421
57.869873	56.326904	0.012421
57.885132	56.339722	0.010834
57.899780	56.333008	0.009552
57.915039	56.377563	0.009888
57.930298	56.409302	0.011475
57.944946	56.390381	0.011169
57.960205	56.422119	0.011169
57.974854	56.422119	0.010193
57.990112	56.416016	0.010529
58.004761	56.460571	0.011780
58.020020	56.466675	0.009552
58.035278	56.479492	0.010529
58.049927	56.499023	0.009552
58.065186	56.517944	0.010834
58.079834	56.594238	0.011169
58.095093	56.543579	0.011475
58.109741	56.568604	0.011780
58.125000	56.556396	0.011169
58.140259	56.607056	0.010834
58.154907	56.607056	0.011169
58.170166	56.607056	0.010529
58.184814	56.613159	0.010529
58.200073	56.658325	0.009247
58.214722	56.683350	0.010193
58.229980	56.658325	0.010529
58.245239	56.677246	0.009552
58.259888	56.677246	0.012115
58.275146	56.721802	0.008942
58.289795	56.721802	0.009247
58.305054	56.766357	0.011169
58.319702	56.753540	0.010834
58.334961	56.791992	0.010834
58.350220	56.785278	0.010834
58.364868	56.810913	0.011475
58.380127	56.823730	0.012421
58.394775	56.855469	0.011780
58.410034	56.874390	0.012115
58.425293	56.842651	0.010529
58.439941	56.868286	0.012421
58.455200	56.906738	0.011169
58.469849	56.931763	0.009888
58.485107	56.970215	0.009888
58.499756	56.925659	0.012421
58.515015	56.964111	0.010834
58.530273	56.995850	0.011475
58.544922	56.983032	0.010529
58.560181	56.964111	0.010529
58.574829	56.995850	0.011475
58.590088	57.033691	0.011475
58.604736	57.084961	0.010193
58.619995	57.072144	0.011169
58.635254	57.110596	0.011475
58.649902	57.122803	0.010529
58.665161	57.110596	0.012115
58.679810	57.148437	0.008942
58.695068	57.155151	0.012115
58.709717	57.186890	0.012421
58.724976	57.167969	0.011475
58.740234	57.205811	0.010529
58.754883	57.167969	0.012756
58.770142	57.225342	0.011780
58.784790	57.231445	0.011475
58.800049	57.244263	0.011169
58.814697	57.250366	0.011780
58.829956	57.282104	0.012421
58.845215	57.314453	0.011475
58.859863	57.301636	0.010529
58.875122	57.346191	0.009247
58.889771	57.339478	0.010834
58.905029	57.339478	0.009552
58.920288	57.403564	0.009888
58.934937	57.377930	0.009888
58.950195	57.384033	0.011475
58.964844	57.384033	0.012115
58.980103	57.448120	0.011780
58.994751	57.422485	0.012756
59.010010	57.429199	0.012421
59.025269	57.467041	0.011169
59.039917	57.518311	0.010529
59.055176	57.524414	0.010834
59.069824	57.505493	0.011475
59.085083	57.543335	0.012115
59.099731	57.556152	0.011475
59.114990	57.562866	0.010834
59.130249	57.575684	0.010834
59.144897	57.575684	0.009888
59.160156	57.613525	0.011475
59.174805	57.626343	0.010193
59.190063	57.639160	0.012115
59.204712	57.670898	0.011475
59.219971	57.658081	0.011169
59.235229	57.696533	0.011475
59.249878	57.677612	0.010529
59.265137	57.677612	0.012115
59.279785	57.734985	0.010834
59.295044	57.779541	0.012115
59.310303	57.772827	0.011475
59.324951	57.785645	0.010193
59.340210	57.753906	0.010834
59.354858	57.811279	0.011169
59.370117	57.843018	0.010529
59.384766	57.861938	0.010834
59.400024	57.881470	0.010193
59.415283	57.868652	0.010834
59.429932	57.874756	0.011169
59.445190	57.913208	0.011780
59.459839	57.900391	0.010834
59.475098	57.938843	0.011475
59.489746	57.944946	0.011475
59.505005	57.976685	0.011780
59.520264	57.970581	0.010834
59.534912	57.989502	0.012115
59.550171	58.008423	0.010529
59.564819	58.034058	0.011169
59.580078	57.989502	0.011475
59.594727	58.040771	0.010834
59.609985	58.085327	0.011475
59.625244	58.052979	0.010193
59.639893	58.072510	0.011169
59.655151	58.104248	0.011169
59.669800	58.135986	0.012115
59.685059	58.129883	0.011475
59.699707	58.110352	0.011780
59.714966	58.174438	0.012756
59.730225	58.193359	0.012421
59.744873	58.218994	0.010834
59.760132	58.231812	0.011169
59.774780	58.225098	0.011169
59.790039	58.276367	0.010834
59.805298	58.250732	0.011475
59.819946	58.282471	0.011169
59.835205	58.276367	0.012115
59.849854	58.269653	0.010193
59.865112	58.333740	0.011780
59.879761	58.339844	0.010834
59.895020	58.352661	0.013702
59.910278	58.333740	0.011169
59.924927	58.371582	0.010834
59.940186	58.391113	0.011475
59.954834	58.384399	0.012115
59.970093	58.397217	0.013062
59.984741	58.460693	0.012756
60.000000	58.467407	0.011475
60.000000	58.435669	0.010834
60.000000	58.410034	0.010834
60.000000	58.460693	0.011169
60.000000	58.473511	0.010834
60.000000	58.467407	0.010834
60.000000	58.460693	0.011475
60.000000	58.460693	0.010834
60.000000	58.460693	0.012115
60.000000	58.441772	0.012115
60.000000	58.467407	0.010834
60.000000	58.467407	0.011475
60.000000	58.480225	0.012756
60.000000	58.493042	0.011475
60.000000	58.454590	0.012756
60.000000	58.486328	0.011475
60.000000	58.493042	0.010834
60.000000	58.493042	0.011780
60.000000	58.530884	0.011475
60.000000	58.524780	0.012756
60.000000	58.537598	0.011475
60.000000	58.556519	0.010834
60.000000	58.537598	0.012115
60.000000	58.556519	0.012115
60.000000	58.563232	0.011780
60.000000	58.550415	0.010834
60.000000	58.550415	0.011780
60.000000	58.556519	0.011780
60.000000	58.582153	0.012756
60.000000	58.550415	0.012756
60.000000	58.575439	0.011780
60.000000	58.582153	0.011169
60.000000	58.543701	0.012115
60.000000	58.550415	0.011780
60.000000	58.575439	0.011169
60.000000	58.607788	0.011780
60.000000	58.626709	0.010834
60.000000	58.575439	0.012421
60.000000	58.607788	0.011169
60.000000	58.619995	0.013702
60.000000	58.626709	0.011169
60.000000	58.607788	0.011169
60.000000	58.607788	0.011780
60.000000	58.645630	0.011475
60.000000	58.665161	0.013397
60.000000	58.645630	0.012756
60.000000	58.626709	0.012421
60.000000	58.626709	0.012115
60.000000	58.639526	0.011475
60.000000	58.652344	0.011780
60.000000	58.652344	0.011475
60.000000	58.645630	0.013062
60.000000	58.696899	0.012115
60.000000	58.658447	0.011780
60.000000	58.652344	0.011169
60.000000	58.684082	0.012115
60.000000	58.658447	0.011475
60.000000	58.690186	0.011475
60.000000	58.709717	0.011780
60.000000	58.703003	0.012115
60.000000	58.728638	0.011780
60.000000	58.684082	0.011780
60.000000	58.721924	0.011169
60.000000	58.709717	0.010193
60.000000	58.728638	0.011169
60.000000	58.734741	0.010834
60.000000	58.728638	0.011475
60.000000	58.709717	0.011780
60.000000	58.760376	0.011780
60.000000	58.767090	0.011780
60.000000	58.734741	0.012115
60.000000	58.734741	0.010834
60.000000	58.734741	0.010834
60.000000	58.773193	0.012421
60.000000	58.767090	0.012421
60.000000	58.767090	0.012756
60.000000	58.767090	0.010529
60.000000	58.773193	0.010529
60.000000	58.760376	0.010834
60.000000	58.754272	0.012421
60.000000	58.779297	0.010834
60.000000	58.811646	0.012756
60.000000	58.786011	0.012421
60.000000	58.798828	0.012421
60.000000	58.823853	0.013397
60.000000	58.786011	0.012115
60.000000	58.798828	0.011475
60.000000	58.823853	0.010529
60.000000	58.760376	0.011475
60.000000	58.804932	0.012421
60.000000	58.843384	0.012756
60.000000	58.843384	0.011169
60.000000	58.817749	0.011475
60.000000	58.804932	0.010834
60.000000	58.798828	0.012756
60.000000	58.836670	0.011169
60.000000	58.856201	0.011475
60.000000	58.811646	0.010834
60.000000	58.856201	0.011475
60.000000	58.869019	0.011780
60.000000	58.856201	0.012115
60.000000	58.875122	0.011475
60.000000	58.843384	0.012756
60.000000	58.887939	0.011169
60.000000	58.881226	0.012115
60.000000	58.894043	0.012115
60.000000	58.856201	0.010529
60.000000	58.869019	0.011475
60.000000	58.862305	0.011169
60.000000	58.875122	0.010834
60.000000	58.869019	0.012115
60.000000	58.925781	0.010834
60.000000	58.856201	0.011475
60.000000	58.900757	0.012115
60.000000	58.900757	0.012115
60.000000	58.906860	0.011475
60.000000	58.913574	0.011780
60.000000	58.887939	0.010834
60.000000	58.900757	0.011475
60.000000	58.919678	0.012756
60.000000	58.919678	0.010193
60.000000	58.932495	0.011780
60.000000	58.900757	0.012421
60.000000	58.906860	0.011475
60.000000	58.925781	0.010834
60.000000	58.964233	0.011780
60.000000	58.938599	0.010834
60.000000	58.932495	0.010834
60.000000	58.932495	0.011780
60.000000	58.970947	0.012756
60.000000	58.945312	0.011169
60.000000	58.958130	0.012421
60.000000	58.977051	0.011780
60.000000	58.977051	0.012115
60.000000	58.989868	0.011475
60.000000	58.945312	0.012421
60.000000	58.970947	0.010834
60.000000	58.970947	0.011169
60.000000	58.964233	0.010193
60.000000	58.977051	0.010834
60.000000	58.977051	0.012115
60.000000	58.995972	0.011169
60.000000	58.983154	0.010193
60.000000	58.989868	0.010193
60.000000	59.002686	0.012421
60.000000	59.002686	0.011475
60.000000	58.983154	0.011780
60.000000	59.002686	0.010834
60.000000	59.008789	0.010834
60.000000	59.027710	0.010529
60.000000	59.027710	0.012115
60.000000	59.047241	0.010193
60.000000	59.027710	0.011169
60.000000	59.002686	0.010193
60.000000	59.040527	0.012421
60.000000	59.021606	0.010529
60.000000	59.021606	0.010193
60.000000	59.040527	0.010834
60.000000	59.047241	0.011169
60.000000	59.053345	0.013397
60.000000	59.040527	0.011780
60.000000	59.053345	0.011169
60.000000	59.047241	0.011475
60.000000	59.078979	0.012115
60.000000	59.047241	0.012756
60.000000	59.047241	0.012421
60.000000	59.072876	0.012115
60.000000	59.034424	0.010193
60.000000	59.066162	0.011169
60.000000	59.066162	0.010834
60.000000	59.091797	0.010529
60.000000	59.072876	0.011780
60.000000	59.085083	0.011475
60.000000	59.104614	0.011780
60.000000	59.117432	0.012115
60.000000	59.091797	0.011475
60.000000	59.091797	0.011169
60.000000	59.072876	0.010834
60.000000	59.078979	0.011169
60.000000	59.078979	0.013702
60.000000	59.123535	0.011475
60.000000	59.117432	0.011475
60.000000	59.097900	0.011780
60.000000	59.091797	0.012115
60.000000	59.117432	0.012115
60.000000	59.110718	0.010834
60.000000	59.123535	0.011475
60.000000	59.117432	0.011475
60.000000	59.110718	0.012115
60.000000	59.130249	0.012115
60.000000	59.136353	0.010193
60.000000	59.110718	0.010834
60.000000	59.123535	0.011169
60.000000	59.155273	0.011475
60.000000	59.168091	0.011475
60.000000	59.168091	0.011475
60.000000	59.149170	0.011780
60.000000	59.097900	0.011169
60.000000	59.142456	0.011475
60.000000	59.136353	0.011475
60.000000	59.155273	0.012115
60.000000	59.149170	0.011475
60.000000	59.168091	0.011475
60.000000	59.168091	0.011475
60.000000	59.136353	0.011475
60.000000	59.142456	0.011475
60.000000	59.206543	0.011475
60.000000	59.161987	0.009888
60.000000	59.199829	0.010193
60.000000	59.174805	0.011475
60.000000	59.168091	0.012115
60.000000	59.180908	0.011780
60.000000	59.206543	0.011169
60.000000	59.180908	0.010529
60.000000	59.187012	0.012115
60.000000	59.187012	0.010193
60.000000	59.206543	0.012421
60.000000	59.199829	0.010529
60.000000	59.199829	0.011169
60.000000	59.193726	0.013062
60.000000	59.206543	0.011780
60.000000	59.193726	0.012421
60.000000	59.180908	0.012756
60.000000	59.219360	0.011780
60.000000	59.193726	0.010529
60.000000	59.212646	0.011780
60.000000	59.244385	0.013397
60.000000	59.219360	0.011780
60.000000	59.219360	0.011169
60.000000	59.225464	0.012756
60.000000	59.193726	0.010529
60.000000	59.219360	0.010834
60.000000	59.219360	0.011169
60.000000	59.212646	0.010529
60.000000	59.244385	0.011780
60.000000	59.232178	0.011475
60.000000	59.206543	0.012115
60.000000	59.244385	0.011475
60.000000	59.225464	0.010834
60.000000	59.232178	0.012115
60.000000	59.232178	0.012115
60.000000	59.238281	0.011475
60.000000	59.219360	0.011780
60.000000	59.238281	0.012421
60.000000	59.219360	0.011475
60.000000	59.238281	0.011475
60.000000	59.295654	0.011780
60.000000	59.276733	0.012115
60.000000	59.244385	0.010529
60.000000	59.282837	0.012756
60.000000	59.238281	0.013062
60.000000	59.238281	0.011475
60.000000	59.282837	0.011169
60.000000	59.244385	0.012421
60.000000	59.308472	0.012421
60.000000	59.270020	0.010834
60.000000	59.263916	0.011475
60.000000	59.282837	0.010193
60.000000	59.270020	0.011475
60.000000	59.276733	0.012115
60.000000	59.295654	0.011475
60.000000	59.288940	0.011475
60.000000	59.288940	0.011169
60.000000	59.282837	0.011475
60.000000	59.308472	0.011475
60.000000	59.270020	0.012115
60.000000	59.308472	0.012115
60.000000	59.295654	0.011475
60.000000	59.327393	0.012115
60.000000	59.295654	0.010834
60.000000	59.295654	0.013062
60.000000	59.321289	0.012421
60.000000	59.295654	0.011475
60.000000	59.308472	0.011169
60.000000	59.321289	0.012115
60.000000	59.295654	0.010529
60.000000	59.314575	0.012756
60.000000	59.314575	0.012421
60.000000	59.359131	0.010834
60.000000	59.327393	0.011780
60.000000	59.321289	0.012115
60.000000	59.308472	0.013062
60.000000	59.327393	0.011780
60.000000	59.353027	0.011475
60.000000	59.308472	0.012115
60.000000	59.346313	0.011475
60.000000	59.321289	0.011475
60.000000	59.346313	0.011780
60.000000	59.371948	0.011169
60.000000	59.346313	0.010193
60.000000	59.365845	0.011169
60.000000	59.371948	0.009888
60.000000	59.359131	0.011475
60.000000	59.321289	0.009552
60.000000	59.365845	0.011780
60.000000	59.334106	0.010834
60.000000	59.340210	0.009888
60.000000	59.321289	0.011169
60.000000	59.359131	0.012756
60.000000	59.340210	0.012115
60.000000	59.353027	0.012115
60.000000	59.365845	0.012115
60.000000	59.371948	0.011475
60.000000	59.371948	0.011475
60.000000	59.390869	0.012756
60.000000	59.365845	0.010834
60.000000	59.397583	0.013062
60.000000	59.359131	0.010529
60.000000	59.371948	0.010834
60.000000	59.384766	0.012421
60.000000	59.397583	0.012756
60.000000	59.416504	0.011780
60.000000	59.365845	0.011780
60.000000	59.390869	0.011475
60.000000	59.371948	0.012421
60.000000	59.403687	0.013702
60.000000	59.397583	0.011780
60.000000	59.397583	0.012756
60.000000	59.353027	0.011475
60.000000	59.410400	0.011169
60.000000	59.403687	0.011475
60.000000	59.384766	0.011169
60.000000	59.397583	0.011475
60.000000	59.436035	0.012421
60.000000	59.397583	0.012421
60.000000	59.397583	0.011475
60.000000	59.410400	0.010529
60.000000	59.429321	0.011475
60.000000	59.448242	0.011780
60.000000	59.423218	0.012115
60.000000	59.403687	0.012756
60.000000	59.423218	0.011780
60.000000	59.436035	0.013062
60.000000	59.410400	0.011780
60.000000	59.410400	0.011780
60.000000	59.436035	0.011475
60.000000	59.403687	0.011169
60.000000	59.442139	0.011169
60.000000	59.442139	0.012756
60.000000	59.416504	0.011475
60.000000	59.423218	0.011475
60.000000	59.403687	0.013702
60.000000	59.403687	0.013062
60.000000	59.429321	0.012115
60.000000	59.448242	0.010193
60.000000	59.416504	0.012421
60.000000	59.416504	0.012756
60.000000	59.423218	0.011780
60.000000	59.423218	0.010193
60.000000	59.442139	0.010834
60.000000	59.442139	0.011475
60.000000	59.461060	0.011169
60.000000	59.436035	0.011475
60.000000	59.448242	0.011169
60.000000	59.448242	0.010529
60.000000	59.480591	0.012756
60.000000	59.448242	0.011475
60.000000	59.492798	0.011475
60.000000	59.480591	0.012115
60.000000	59.473877	0.011475
60.000000	59.473877	0.013397
60.000000	59.473877	0.011780
60.000000	59.461060	0.011475
60.000000	59.448242	0.012115
60.000000	59.473877	0.010834
60.000000	59.486694	0.011475
60.000000	59.473877	0.010834
60.000000	59.473877	0.011475
60.000000	59.473877	0.011780
60.000000	59.454956	0.012421
60.000000	59.448242	0.011780
60.000000	59.499512	0.012115
60.000000	59.448242	0.010834
60.000000	59.461060	0.011475
60.000000	59.486694	0.012421
60.000000	59.486694	0.012115
60.000000	59.492798	0.012421
60.000000	59.492798	0.012756
60.000000	59.473877	0.012421
60.000000	59.512329	0.010529
60.000000	59.492798	0.012421
60.000000	59.499512	0.011475
60.000000	59.518433	0.010193
60.000000	59.492798	0.011169
60.000000	59.492798	0.010834
60.000000	59.492798	0.012421
60.000000	59.486694	0.012115
60.000000	59.499512	0.011475
60.000000	59.512329	0.010834
60.000000	59.518433	0.012115
60.000000	59.499512	0.011475
60.000000	59.486694	0.013062
60.000000	59.505615	0.012115
60.000000	59.499512	0.012115
60.000000	59.492798	0.011780
60.000000	59.518433	0.011169
60.000000	59.537964	0.011475
60.000000	59.499512	0.011780
60.000000	59.525146	0.011475
60.000000	59.480591	0.011169
60.000000	59.562988	0.013062
60.000000	59.505615	0.012756
60.000000	59.505615	0.011475
60.000000	59.512329	0.013397
60.000000	59.544067	0.011475
60.000000	59.512329	0.011780
60.000000	59.525146	0.012421
60.000000	59.550171	0.012115
60.000000	59.531250	0.009552
60.000000	59.518433	0.012421
60.000000	59.537964	0.011475
60.000000	59.550171	0.010193
60.000000	59.537964	0.011475
60.000000	59.569702	0.011169
60.000000	59.518433	0.011780
60.000000	59.556885	0.011475
60.000000	59.518433	0.012115
60.000000	59.531250	0.011169
60.000000	59.525146	0.011475
60.000000	59.544067	0.010834
60.000000	59.601440	0.011475
60.000000	59.537964	0.011475
60.000000	59.537964	0.012421
60.000000	59.556885	0.011780
60.000000	59.537964	0.010834
60.000000	59.556885	0.010834
60.000000	59.556885	0.012115
60.000000	59.550171	0.011169
60.000000	59.569702	0.011780
60.000000	59.537964	0.010529
60.000000	59.537964	0.013062
60.000000	59.556885	0.012421
60.000000	59.575806	0.011169
60.000000	59.562988	0.011475
60.000000	59.569702	0.011169
60.000000	59.594727	0.011475
60.000000	59.556885	0.013397
60.000000	59.569702	0.012756
60.000000	59.569702	0.010834
60.000000	59.562988	0.011780
60.000000	59.588623	0.011475
60.000000	59.562988	0.010834
60.000000	59.575806	0.011780
60.000000	59.569702	0.011169
60.000000	59.562988	0.011780
60.000000	59.601440	0.010529
60.000000	59.588623	0.011475
60.000000	59.575806	0.011475
60.000000	59.556885	0.012756
60.000000	59.620361	0.011475
60.000000	59.562988	0.011475
60.000000	59.575806	0.012756
60.000000	59.562988	0.012421
60.000000	59.562988	0.011169
60.000000	59.588623	0.012115
60.000000	59.569702	0.010834
60.000000	59.582520	0.010834
60.000000	59.594727	0.012115
60.000000	59.575806	0.011475
60.000000	59.601440	0.012115
60.000000	59.575806	0.011780
60.000000	59.601440	0.010834
60.000000	59.575806	0.011780
60.000000	59.582520	0.010529
60.000000	59.601440	0.011780
60.000000	59.594727	0.012421
60.000000	59.575806	0.011475
60.000000	59.569702	0.012115
60.000000	59.569702	0.011169
60.000000	59.588623	0.011475
60.000000	59.575806	0.012115
60.000000	59.601440	0.011780
60.000000	59.607544	0.011780
60.000000	59.588623	0.012421
60.000000	59.575806	0.011475
60.000000	59.575806	0.011780
60.000000	59.620361	0.011780
60.000000	59.627075	0.012421
60.000000	59.594727	0.012115
60.000000	59.639893	0.010193
60.000000	59.588623	0.012756
60.000000	59.620361	0.011475
60.000000	59.633179	0.011780
60.000000	59.601440	0.010834
60.000000	59.588623	0.010193
60.000000	59.601440	0.009888
60.000000	59.627075	0.010834
60.000000	59.627075	0.011475
60.000000	59.594727	0.011169
60.000000	59.607544	0.012115
60.000000	59.652100	0.011169
60.000000	59.614258	0.012115
60.000000	59.601440	0.010834
60.000000	59.607544	0.012115
60.000000	59.627075	0.011475
60.000000	59.620361	0.011475
60.000000	59.607544	0.010834
60.000000	59.607544	0.012756
60.000000	59.639893	0.011475
60.000000	59.607544	0.012756
60.000000	59.594727	0.011475
60.000000	59.627075	0.011169
60.000000	59.607544	0.011780
60.000000	59.639893	0.011475
60.000000	59.639893	0.011169
60.000000	59.645996	0.012115
60.000000	59.620361	0.012756
60.000000	59.620361	0.010834
60.000000	59.620361	0.011780
60.000000	59.627075	0.012756
60.000000	59.633179	0.011780
60.000000	59.652100	0.012115
60.000000	59.620361	0.013062
60.000000	59.639893	0.012115
60.000000	59.614258	0.011780
60.000000	59.664917	0.011475
60.000000	59.639893	0.011780
60.000000	59.658813	0.012421
60.000000	59.652100	0.011475
60.000000	59.639893	0.011780
60.000000	59.645996	0.012115
60.000000	59.620361	0.011475
60.000000	59.601440	0.010834
60.000000	59.658813	0.012115
60.000000	59.639893	0.010834
60.000000	59.658813	0.010834
60.000000	59.627075	0.011475
60.000000	59.633179	0.011475
60.000000	59.633179	0.012115
60.000000	59.633179	0.011780
60.000000	59.639893	0.011780
60.000000	59.620361	0.011169
60.000000	59.664917	0.009888
60.000000	59.620361	0.010834
60.000000	59.671631	0.011475
60.000000	59.677734	0.011475
60.000000	59.677734	0.012421
60.000000	59.645996	0.011475
60.000000	59.627075	0.011475
60.000000	59.664917	0.012115
60.000000	59.664917	0.012115
60.000000	59.645996	0.011475
60.000000	59.677734	0.013062
60.000000	59.677734	0.011475
60.000000	59.645996	0.011475
60.000000	59.639893	0.012421
60.000000	59.652100	0.010834
60.000000	59.645996	0.011475
60.000000	59.664917	0.011475
60.000000	59.671631	0.011475
60.000000	59.664917	0.012421
60.000000	59.671631	0.011475
60.000000	59.671631	0.012756
60.000000	59.645996	0.012115
60.000000	59.645996	0.012115
60.000000	59.652100	0.011475
60.000000	59.652100	0.012421
60.000000	59.671631	0.011475
60.000000	59.652100	0.011475
60.000000	59.690552	0.012756
60.000000	59.696655	0.011169
60.000000	59.652100	0.010529
60.000000	59.703369	0.012115
60.000000	59.664917	0.013397
60.000000	59.652100	0.011475
60.000000	59.664917	0.011780
60.000000	59.671631	0.011169
60.000000	59.671631	0.011475
60.000000	59.677734	0.011475
60.000000	59.696655	0.012421
60.000000	59.684448	0.011475
60.000000	59.696655	0.012756
60.000000	59.690552	0.011780
60.000000	59.671631	0.011475
60.000000	59.690552	0.012756
60.000000	59.664917	0.011475
60.000000	59.627075	0.011780
60.000000	59.664917	0.010834
60.000000	59.690552	0.011475
60.000000	59.690552	0.010834
60.000000	59.696655	0.010834
60.000000	59.696655	0.012756
60.000000	59.696655	0.011780
60.000000	59.652100	0.010834
60.000000	59.677734	0.011475
60.000000	59.684448	0.012421
60.000000	59.684448	0.011169
60.000000	59.716187	0.012421
60.000000	59.703369	0.012421
60.000000	59.684448	0.012115
60.000000	59.684448	0.010529
60.000000	59.664917	0.011780
60.000000	59.703369	0.012115
60.000000	59.703369	0.012115
60.000000	59.709473	0.011780
60.000000	59.703369	0.011475
60.000000	59.716187	0.012115
60.000000	59.703369	0.012756
60.000000	59.703369	0.013062
60.000000	59.658813	0.012421
60.000000	59.684448	0.012421
60.000000	59.696655	0.013062
60.000000	59.729004	0.011475
60.000000	59.690552	0.011475
60.000000	59.709473	0.011475
60.000000	59.684448	0.011475
60.000000	59.684448	0.010834
60.000000	59.703369	0.012115
60.000000	59.703369	0.011475
60.000000	59.684448	0.011780
60.000000	59.703369	0.011475
60.000000	59.709473	0.013062
60.000000	59.696655	0.012756
60.000000	59.722290	0.012756
60.000000	59.703369	0.011475
60.000000	59.747925	0.011475
60.000000	59.709473	0.010834
60.000000	59.735107	0.011169
60.000000	59.760742	0.012421
60.000000	59.729004	0.009247
60.000000	59.696655	0.011169
60.000000	59.703369	0.012421
60.000000	59.703369	0.010834
60.000000	59.747925	0.009552
60.000000	59.747925	0.012115
60.000000	59.766846	0.010834
60.000000	59.690552	0.012421
60.000000	59.709473	0.012756
60.000000	59.741821	0.012756
60.000000	59.709473	0.010834
60.000000	59.766846	0.013062
60.000000	59.741821	0.012115
60.000000	59.747925	0.013062
60.000000	59.729004	0.011475
60.000000	59.747925	0.010834
60.000000	59.729004	0.011780
60.000000	59.747925	0.011475
60.000000	59.716187	0.009888
60.000000	59.709473	0.010529
60.000000	59.716187	0.011475
60.000000	59.729004	0.012115
60.000000	59.729004	0.012421
60.000000	59.760742	0.012115
60.000000	59.709473	0.012115
60.000000	59.716187	0.010834
60.000000	59.729004	0.012421
60.000000	59.709473	0.011475
60.000000	59.722290	0.011780
60.000000	59.729004	0.012756
60.000000	59.729004	0.010193
60.000000	59.766846	0.011169
60.000000	59.735107	0.011780
60.000000	59.735107	0.011169
60.000000	59.729004	0.011169
60.000000	59.729004	0.011475
60.000000	59.754028	0.012756
60.000000	59.735107	0.011475
60.000000	59.779663	0.013062
60.000000	59.703369	0.011475
60.000000	59.729004	0.010193
60.000000	59.766846	0.012421
60.000000	59.722290	0.012756
60.000000	59.773560	0.012756
60.000000	59.735107	0.012421
60.000000	59.729004	0.011169
60.000000	59.722290	0.010834
60.000000	59.741821	0.011169
60.000000	59.741821	0.009247
60.000000	59.766846	0.012756
60.000000	59.729004	0.011780
60.000000	59.786377	0.010529
60.000000	59.703369	0.011169
60.000000	59.747925	0.012421
60.000000	59.729004	0.011780
60.000000	59.716187	0.011780
60.000000	59.766846	0.011475
60.000000	59.773560	0.010834
60.000000	59.779663	0.011780
60.000000	59.779663	0.012421
60.000000	59.729004	0.011475
60.000000	59.735107	0.011475
60.000000	59.754028	0.012115
60.000000	59.729004	0.011780
60.000000	59.773560	0.012421
60.000000	59.773560	0.011780
60.000000	59.754028	0.011475
60.000000	59.735107	0.011475
60.000000	59.754028	0.011780
60.000000	59.729004	0.011780
60.000000	59.741821	0.010834
60.000000	59.766846	0.011475
60.000000	59.760742	0.012115
60.000000	59.747925	0.012115
60.000000	59.766846	0.012756
60.000000	59.766846	0.011780
60.000000	59.747925	0.011475
60.000000	59.747925	0.011780
60.000000	59.747925	0.012115
60.000000	59.779663	0.012115
60.000000	59.760742	0.012421
60.000000	59.766846	0.012115
60.000000	59.747925	0.010834
60.000000	59.729004	0.012421
60.000000	59.741821	0.010834
60.000000	59.773560	0.011169
60.000000	59.773560	0.010834
60.000000	59.766846	0.013397
60.000000	59.766846	0.011475
60.000000	59.754028	0.012421
60.000000	59.766846	0.010193
60.000000	59.766846	0.010529
60.000000	59.741821	0.012115
60.000000	59.741821	0.010834
60.000000	59.773560	0.011475
60.000000	59.760742	0.009888
60.000000	59.760742	0.012421
60.000000	59.766846	0.011169
60.000000	59.779663	0.012421
60.000000	59.754028	0.011169
60.000000	59.760742	0.010834
60.000000	59.766846	0.012421
60.000000	59.747925	0.012421
60.000000	59.773560	0.011475
60.000000	59.766846	0.013702
60.000000	59.779663	0.011169
60.000000	59.773560	0.010529
60.000000	59.741821	0.010834
60.000000	59.747925	0.011780
60.000000	59.766846	0.011169
60.000000	59.786377	0.011169
60.000000	59.773560	0.011475
60.000000	59.760742	0.011475
60.000000	59.766846	0.011475
60.000000	59.779663	0.011475
60.000000	59.747925	0.011169
60.000000	59.735107	0.011475
60.000000	59.799194	0.012756
60.000000	59.773560	0.012115
60.000000	59.747925	0.012756
60.000000	59.773560	0.012421
60.000000	59.773560	0.010529
60.000000	59.754028	0.010529
60.000000	59.786377	0.011780
60.000000	59.779663	0.012115
60.000000	59.799194	0.011169
60.000000	59.792480	0.012115
60.000000	59.799194	0.011780
60.000000	59.747925	0.012756
60.000000	59.760742	0.012115
60.000000	59.766846	0.011169
60.000000	59.805298	0.011169
60.000000	59.779663	0.012421
60.000000	59.824219	0.011475
60.000000	59.805298	0.013702
60.000000	59.779663	0.011780
60.000000	59.773560	0.011475
60.000000	59.747925	0.010529
60.000000	59.786377	0.011780
60.000000	59.779663	0.011475
60.000000	59.766846	0.012756
60.000000	59.786377	0.010834
60.000000	59.766846	0.012115
60.000000	59.792480	0.012756
60.000000	59.760742	0.012115
60.000000	59.779663	0.011780
60.000000	59.760742	0.010193
60.000000	59.760742	0.012421
60.000000	59.754028	0.011169
60.000000	59.805298	0.013062
60.000000	59.779663	0.010834
60.000000	59.811401	0.011780
60.000000	59.773560	0.011475
60.000000	59.779663	0.011780
60.000000	59.805298	0.011475
60.000000	59.799194	0.013397
60.000000	59.805298	0.012421
60.000000	59.773560	0.011169
60.000000	59.766846	0.011169
60.000000	59.811401	0.012756
60.000000	59.799194	0.010834
60.000000	59.786377	0.012115
60.000000	59.799194	0.011780
60.000000	59.779663	0.012115
60.000000	59.779663	0.012421
60.000000	59.779663	0.012756
60.000000	59.766846	0.011780
60.000000	59.747925	0.011475
60.000000	59.773560	0.011780
60.000000	59.805298	0.011780
60.000000	59.818115	0.011475
60.000000	59.792480	0.012115
60.000000	59.799194	0.010529
60.000000	59.792480	0.011169
60.000000	59.786377	0.012421
60.000000	59.792480	0.011475
60.000000	59.779663	0.010834
60.000000	59.805298	0.011780
60.000000	59.779663	0.012115
60.000000	59.773560	0.012115
60.000000	59.805298	0.012421
60.000000	59.805298	0.012115
60.000000	59.805298	0.010193
60.000000	59.799194	0.011780
60.000000	59.818115	0.011169
60.000000	59.824219	0.012421
60.000000	59.799194	0.011475
60.000000	59.805298	0.010834
60.000000	59.779663	0.011475
60.000000	59.779663	0.012421
60.000000	59.818115	0.010834
60.000000	59.811401	0.011169
60.000000	59.830933	0.012756
60.000000	59.792480	0.011169
60.000000	59.786377	0.011475
60.000000	59.811401	0.012756
60.000000	59.818115	0.011475
60.000000	59.792480	0.011475
60.000000	59.799194	0.012421
60.000000	59.779663	0.012115
60.000000	59.818115	0.011169
60.000000	59.786377	0.011475
60.000000	59.799194	0.011475
60.000000	59.811401	0.010193
60.000000	59.805298	0.013062
60.000000	59.779663	0.011475
60.000000	59.811401	0.011475
60.000000	59.811401	0.009888
60.000000	59.811401	0.011475
60.000000	59.792480	0.011475
60.000000	59.766846	0.011475
60.000000	59.792480	0.009888
60.000000	59.786377	0.011169
60.000000	59.805298	0.011475
60.000000	59.805298	0.010834
60.000000	59.824219	0.012421
60.000000	59.805298	0.011169
60.000000	59.805298	0.012115
60.000000	59.805298	0.009247
60.000000	59.818115	0.011780
60.000000	59.818115	0.012115
60.000000	59.779663	0.011780
60.000000	59.786377	0.011780
60.000000	59.805298	0.011169
60.000000	59.811401	0.010834
60.000000	59.818115	0.011780
60.000000	59.792480	0.011169
60.000000	59.799194	0.011780
60.000000	59.799194	0.011780
60.000000	59.799194	0.011475
60.000000	59.818115	0.011475
60.000000	59.805298	0.010834
60.000000	59.824219	0.011780
60.000000	59.811401	0.011780
60.000000	59.837036	0.012115
60.000000	59.837036	0.011475
60.000000	59.805298	0.012756
60.000000	59.805298	0.011475
60.000000	59.818115	0.012115
60.000000	59.811401	0.013702
60.000000	59.818115	0.011780
60.000000	59.824219	0.011475
60.000000	59.837036	0.009888
60.000000	59.779663	0.012115
60.000000	59.811401	0.013062
60.000000	59.830933	0.010834
60.000000	59.818115	0.011780
60.000000	59.792480	0.011780
60.000000	59.830933	0.010834
60.000000	59.811401	0.012115
60.000000	59.811401	0.012115
60.000000	59.811401	0.010834
60.000000	59.855957	0.012115
60.000000	59.824219	0.010529
60.000000	59.818115	0.012421
60.000000	59.811401	0.011780
60.000000	59.818115	0.011780
60.000000	59.799194	0.011169
60.000000	59.824219	0.012115
60.000000	59.830933	0.010193
60.000000	59.818115	0.012115
60.000000	59.805298	0.012115
60.000000	59.818115	0.011780
60.000000	59.830933	0.012421
60.000000	59.799194	0.013062
60.000000	59.805298	0.011780
60.000000	59.843750	0.011475
60.000000	59.811401	0.010834
60.000000	59.855957	0.011169
60.000000	59.849854	0.012421
60.000000	59.818115	0.011169
60.000000	59.805298	0.012421
60.000000	59.849854	0.011169
60.000000	59.830933	0.012115
60.000000	59.824219	0.011780
60.000000	59.818115	0.011475
60.000000	59.818115	0.010529
60.000000	59.837036	0.012756
60.000000	59.830933	0.013062
60.000000	59.868774	0.011780
60.000000	59.824219	0.011475
60.000000	59.805298	0.012756
60.000000	59.830933	0.012115
60.000000	59.843750	0.011169
60.000000	59.862671	0.011169
60.000000	59.855957	0.012115
60.000000	59.843750	0.011475
60.000000	59.824219	0.010529
60.000000	59.824219	0.011475
60.000000	59.818115	0.010834
60.000000	59.881592	0.011169
60.000000	59.855957	0.011780
60.000000	59.849854	0.011780
60.000000	59.824219	0.010193
60.000000	59.830933	0.012756
60.000000	59.843750	0.013397
60.000000	59.824219	0.011780
60.000000	59.875488	0.012421
60.000000	59.830933	0.011780
60.000000	59.818115	0.010529
60.000000	59.862671	0.011780
60.000000	59.837036	0.012756
60.000000	59.843750	0.011780
60.000000	59.818115	0.011169
60.000000	59.881592	0.011475
60.000000	59.849854	0.011169
60.000000	59.855957	0.012421
60.000000	59.824219	0.011169
60.000000	59.849854	0.010834
60.000000	59.855957	0.011475
60.000000	59.868774	0.011169
60.000000	59.818115	0.011780
60.000000	59.818115	0.012115
60.000000	59.818115	0.010529
60.000000	59.868774	0.013062
60.000000	59.830933	0.012421
60.000000	59.862671	0.012421
60.000000	59.843750	0.012756
60.000000	59.843750	0.011780
60.000000	59.824219	0.011169
60.000000	59.799194	0.010529
60.000000	59.868774	0.010834
60.000000	59.843750	0.010529
60.000000	59.862671	0.010193
60.000000	59.868774	0.013062
60.000000	59.849854	0.013397
60.000000	59.830933	0.011780
60.000000	59.830933	0.011169
60.000000	59.818115	0.012756
60.000000	59.868774	0.012756
60.000000	59.843750	0.012115
60.000000	59.830933	0.011780
60.000000	59.849854	0.011475
60.000000	59.862671	0.010834
60.000000	59.824219	0.010834
60.000000	59.824219	0.011780
60.000000	59.824219	0.011475
60.000000	59.855957	0.010529
60.000000	59.837036	0.011169
60.000000	59.830933	0.012115
60.000000	59.881592	0.012115
60.000000	59.849854	0.012115
60.000000	59.855957	0.011475
60.000000	59.837036	0.011780
60.000000	59.843750	0.013702
60.000000	59.818115	0.011780
60.000000	59.868774	0.012756
60.000000	59.843750	0.012115
60.000000	59.843750	0.010834
60.000000	59.875488	0.011475
60.000000	59.855957	0.011169
60.000000	59.855957	0.011475
60.000000	59.837036	0.011780
60.000000	59.855957	0.010834
60.000000	59.830933	0.011475
60.000000	59.868774	0.011169
60.000000	59.830933	0.010834
60.000000	59.868774	0.012115
60.000000	59.837036	0.011475
60.000000	59.849854	0.012756
60.000000	59.830933	0.012115
60.000000	59.843750	0.011780
60.000000	59.837036	0.009247
60.000000	59.837036	0.012756
60.000000	59.824219	0.012421
60.000000	59.830933	0.011475
60.000000	59.849854	0.011475
60.000000	59.830933	0.011475
60.000000	59.830933	0.012115
60.000000	59.875488	0.012115
60.000000	59.875488	0.011475
60.000000	59.862671	0.011475
60.000000	59.830933	0.012756
60.000000	59.920044	0.011475
60.000000	59.837036	0.012756
60.000000	59.862671	0.011169
60.000000	59.849854	0.011475
60.000000	59.830933	0.010529
60.000000	59.894409	0.011780
60.000000	59.811401	0.011169
60.000000	59.830933	0.010529
60.000000	59.818115	0.011475
59.984741	59.818115	0.010834
59.970093	59.786377	0.010834
59.954834	59.773560	0.012115
59.940186	59.779663	0.011169
59.924927	59.779663	0.012115
59.910278	59.766846	0.010529
59.895020	59.773560	0.011780
59.879761	59.741821	0.011169
59.865112	59.735107	0.011780
59.849854	59.722290	0.012421
59.835205	59.703369	0.012115
59.819946	59.684448	0.011780
59.805298	59.677734	0.010834
59.790039	59.690552	0.010529
59.774780	59.677734	0.011475
59.760132	59.645996	0.009552
59.744873	59.664917	0.012115
59.730225	59.645996	0.011780
59.714966	59.645996	0.013397
59.699707	59.658813	0.012756
59.685059	59.607544	0.011780
59.669800	59.601440	0.012115
59.655151	59.658813	0.011169
59.639893	59.562988	0.012115
59.625244	59.569702	0.012756
59.609985	59.556885	0.011169
59.594727	59.550171	0.010193
59.580078	59.518433	0.012421
59.564819	59.512329	0.012756
59.550171	59.518433	0.011169
59.534912	59.525146	0.011475
59.520264	59.505615	0.010834
59.505005	59.480591	0.012115
59.489746	59.480591	0.012756
59.475098	59.454956	0.011780
59.459839	59.461060	0.012115
59.445190	59.492798	0.009888
59.429932	59.436035	0.012756
59.415283	59.410400	0.011475
59.400024	59.423218	0.012421
59.384766	59.416504	0.011475
59.370117	59.384766	0.011475
59.354858	59.371948	0.012115
59.340210	59.365845	0.011475
59.324951	59.371948	0.011169
59.310303	59.365845	0.008942
59.295044	59.346313	0.010834
59.279785	59.321289	0.009552
59.265137	59.314575	0.011475
59.249878	59.288940	0.010834
59.235229	59.308472	0.012756
59.219971	59.308472	0.012115
59.204712	59.270020	0.011169
59.190063	59.263916	0.011780
59.174805	59.270020	0.013397
59.160156	59.244385	0.010529
59.144897	59.238281	0.012115
59.130249	59.238281	0.012115
59.114990	59.206543	0.011780
59.099731	59.187012	0.011475
59.085083	59.168091	0.011169
59.069824	59.187012	0.012756
59.055176	59.168091	0.010834
59.039917	59.142456	0.012115
59.025269	59.168091	0.011475
59.010010	59.117432	0.011169
58.994751	59.142456	0.011475
58.980103	59.117432	0.010834
58.964844	59.123535	0.010529
58.950195	59.078979	0.011780
58.934937	59.091797	0.012756
58.920288	59.066162	0.011169
58.905029	59.027710	0.011475
58.889771	59.021606	0.011475
58.875122	59.021606	0.011169
58.859863	59.027710	0.011475
58.845215	59.027710	0.011169
58.829956	59.002686	0.012115
58.814697	58.977051	0.010834
58.800049	58.977051	0.011780
58.784790	58.970947	0.011475
58.770142	58.964233	0.010529
58.754883	58.932495	0.011780
58.740234	58.919678	0.011780
58.724976	58.958130	0.010193
58.709717	58.887939	0.012115
58.695068	58.900757	0.010834
58.679810	58.862305	0.011169
58.665161	58.887939	0.010834
58.649902	58.849487	0.010193
58.635254	58.856201	0.011780
58.619995	58.862305	0.010193
58.604736	58.786011	0.009552
58.590088	58.786011	0.012756
58.574829	58.843384	0.011169
58.560181	58.811646	0.011169
58.544922	58.786011	0.011169
58.530273	58.804932	0.011169
58.515015	58.786011	0.011169
58.499756	58.747559	0.012115
58.485107	58.767090	0.011780
58.469849	58.734741	0.011169
58.455200	58.709717	0.012115
58.439941	58.721924	0.012421
58.425293	58.741455	0.010834
58.410034	58.690186	0.009888
58.394775	58.696899	0.011780
58.380127	58.658447	0.010834
58.364868	58.645630	0.012421
58.350220	58.619995	0.012421
58.334961	58.632812	0.011169
58.319702	58.619995	0.011780
58.305054	58.613892	0.010529
58.289795	58.550415	0.013397
58.275146	58.582153	0.011780
58.259888	58.607788	0.011780
58.245239	58.563232	0.012115
58.229980	58.556519	0.012421
58.214722	58.537598	0.011475
58.200073	58.511963	0.010529
58.184814	58.518066	0.010193
58.170166	58.486328	0.011169
58.154907	58.486328	0.010529
58.140259	58.480225	0.012115
58.125000	58.441772	0.011475
58.109741	58.473511	0.011169
58.095093	58.454590	0.012115
58.079834	58.441772	0.011475
58.065186	58.441772	0.011169
58.049927	58.441772	0.011475
58.035278	58.391113	0.011780
58.020020	58.391113	0.010834
58.004761	58.358765	0.011780
57.990112	58.365479	0.011780
57.974854	58.346558	0.010834
57.960205	58.327026	0.010193
57.944946	58.320923	0.011169
57.930298	58.308105	0.010193
57.915039	58.308105	0.010529
57.899780	58.237915	0.013062
57.885132	58.256836	0.011169
57.869873	58.314209	0.011169
57.855225	58.269653	0.010529
57.839966	58.237915	0.011780
57.824707	58.225098	0.011475
57.810059	58.218994	0.011169
57.794800	58.200073	0.011475
57.780151	58.174438	0.010529
57.764893	58.135986	0.012421
57.750244	58.161621	0.009552
57.734985	58.154907	0.010193
57.719727	58.148804	0.010834
57.705078	58.129883	0.009552
57.689819	58.110352	0.012115
57.675171	58.091431	0.011780
57.659912	58.059692	0.011475
57.645264	58.104248	0.011780
57.630005	58.059692	0.011780
57.614746	58.052979	0.010529
57.600098	58.040771	0.011169
57.584839	57.996216	0.010834
57.570190	58.021240	0.010834
57.554932	58.021240	0.010834
57.540283	58.008423	0.010193
57.525024	58.002319	0.011475
57.509766	57.963867	0.011169
57.495117	57.932129	0.010529
57.479858	57.957764	0.010529
57.465210	57.957764	0.011169
57.449951	57.932129	0.011475
57.435303	57.900391	0.010529
57.420044	57.881470	0.011169
57.404785	57.926025	0.011475
57.390137	57.894287	0.011780
57.374878	57.855835	0.012421
57.360229	57.817383	0.012115
57.344971	57.868652	0.010834
57.329712	57.817383	0.010834
57.315063	57.804565	0.011169
57.299805	57.785645	0.011475
57.285156	57.817383	0.010193
57.269897	57.779541	0.009888
57.255249	57.772827	0.011475
57.239990	57.741089	0.011780
57.224731	57.728271	0.010834
57.210083	57.747192	0.010529
57.194824	57.734985	0.010193
57.180176	57.702637	0.010834
57.164917	57.677612	0.011169
57.150269	57.702637	0.011169
57.135010	57.658081	0.010834
57.119751	57.645264	0.010834
57.105103	57.645264	0.010529
57.089844	57.645264	0.010193
57.075195	57.626343	0.010193
57.059937	57.639160	0.010529
57.045288	57.613525	0.009888
57.030029	57.575684	0.010193
57.014771	57.587891	0.010193
57.000122	57.562866	0.011475
56.984863	57.556152	0.011780
56.970215	57.543335	0.010193
56.954956	57.543335	0.010834
56.939697	57.511597	0.010193
56.925049	57.492676	0.010529
56.909790	57.492676	0.011475
56.895142	57.485962	0.009247
56.879883	57.448120	0.010193
56.865234	57.448120	0.010834
56.849976	57.416382	0.011169
56.834717	57.422485	0.010529
56.820068	57.403564	0.012115
56.804810	57.359009	0.011780
56.790161	57.403564	0.008942
56.774902	57.390747	0.012115
56.760254	57.371826	0.011475
56.744995	57.339478	0.009888
56.729736	57.320557	0.009552
56.715088	57.307739	0.008301
56.699829	57.327271	0.010834
56.685181	57.307739	0.009247
56.669922	57.314453	0.010529
56.655273	57.269897	0.010193
56.640015	57.212524	0.011169
56.624756	57.231445	0.011475
56.610107	57.244263	0.008942
56.594849	57.225342	0.010193
56.580200	57.199707	0.011475
56.564941	57.192993	0.011169
56.550293	57.174072	0.010193
56.535034	57.148437	0.010834
56.519775	57.161255	0.010529
56.505127	57.135620	0.009888
56.489868	57.148437	0.011475
56.475220	57.097778	0.010834
56.459961	57.116699	0.011475
56.444702	57.091064	0.010193
56.430054	57.097778	0.010193
56.414795	57.097778	0.011169
56.400146	57.084961	0.011169
56.384888	57.053223	0.010529
56.370239	57.053223	0.010193
56.354980	57.014771	0.010529
56.339722	56.995850	0.010834
56.325073	56.976318	0.011475
56.309814	56.989136	0.011169
56.295166	56.983032	0.009552
56.279907	56.983032	0.011475
56.265259	56.951294	0.008942
56.250000	56.906738	0.010529
56.234741	56.918945	0.011475
56.220093	56.900024	0.010834
56.204834	56.849365	0.009552
56.190186	56.874390	0.009552
56.174927	56.817017	0.010529
56.160278	56.887207	0.009888
56.145020	56.836548	0.008942
56.129761	56.810913	0.010193
56.115112	56.804810	0.010834
56.099854	56.779175	0.011475
56.085205	56.747437	0.010193
56.069946	56.766357	0.011169
56.055298	56.779175	0.011780
56.040039	56.721802	0.011169
56.024780	56.734619	0.009247
56.010132	56.740723	0.012115
55.994873	56.715088	0.011169
55.980225	56.702881	0.011169
55.964966	56.708984	0.010529
55.949707	56.670532	0.010193
55.935059	56.664429	0.010529
55.919800	56.651611	0.010193
55.905151	56.619873	0.010834
55.889893	56.632690	0.011475
55.875244	56.607056	0.010193
55.859985	56.607056	0.010193
55.844727	56.588135	0.010834
55.830078	56.575317	0.010834
55.814819	56.588135	0.008606
55.800171	56.575317	0.010529
55.784912	56.505127	0.010193
55.770264	56.524048	0.011169
55.755005	56.492310	0.008942
55.739746	56.499023	0.010834
55.725098	56.479492	0.010193
55.709839	56.473389	0.010834
55.695190	56.434937	0.009888
55.679932	56.403198	0.010834
55.665283	56.403198	0.010529
55.650024	56.434937	0.010193
55.634766	56.397095	0.010529
55.620117	56.364746	0.011475
55.604858	56.364746	0.008942
55.590210	56.384277	0.011475
55.574951	56.384277	0.010193
55.560303	56.326904	0.011780
55.545044	56.307373	0.010529
55.529785	56.314087	0.009247
55.515137	56.295166	0.010834
55.499878	56.269531	0.010529
55.485229	56.262817	0.009552
55.469971	56.262817	0.009888
55.454712	56.256714	0.011475
55.440063	56.231079	0.010834
55.424805	56.231079	0.011475
55.410156	56.199341	0.010834
55.394897	56.199341	0.011169
55.380249	56.180420	0.010834
55.364990	56.180420	0.009552
55.349731	56.141968	0.009247
55.335083	56.129150	0.009552
55.319824	56.097412	0.010834
55.305176	56.110229	0.009247
55.289917	56.116333	0.008942
55.275269	56.084595	0.009247
55.260010	56.052856	0.007965
55.244751	56.091309	0.010193
55.230103	56.033936	0.008606
55.214844	56.014404	0.010193
55.200195	55.995483	0.010193
55.184937	56.001587	0.011169
55.170288	55.963745	0.011169
55.155029	55.957031	0.008942
55.139771	55.976562	0.010193
55.125122	55.938110	0.010193
55.109863	55.932007	0.011169
55.095215	55.919189	0.010529
55.079956	55.899658	0.009552
55.064697	55.893555	0.009552
55.050049	55.867920	0.011475
55.034790	55.893555	0.010529
55.020142	55.842285	0.009247
55.004883	55.842285	0.008942
54.990234	55.836182	0.009888
54.974976	55.830078	0.011475
54.959717	55.830078	0.011780
54.945068	55.823364	0.009247
54.929810	55.765991	0.010529
54.915161	55.753174	0.010529
54.899902	55.715332	0.011169
54.885254	55.734253	0.011169
54.869995	55.708618	0.010193
54.854736	55.702515	0.010529
54.840088	55.676880	0.009552
54.824829	55.682983	0.008942
54.810181	55.702515	0.009552
54.794922	55.657959	0.009552
54.780273	55.645142	0.009552
54.765015	55.638428	0.010193
54.749756	55.619507	0.010193
54.735107	55.600586	0.011169
54.719849	55.587769	0.009552
54.705200	55.568848	0.010834
54.689941	55.549316	0.010193
54.675293	55.562134	0.009552
54.660034	55.536499	0.010529
54.644775	55.524292	0.010529
54.630127	55.466919	0.010193
54.614868	55.504761	0.009552
54.600220	55.454102	0.010193
54.584961	55.491943	0.011169
54.569702	55.485840	0.008942
54.555054	55.473022	0.008301
54.539795	55.422363	0.008606
54.525146	55.422363	0.008301
54.509888	55.396729	0.010529
54.495239	55.377197	0.010193
54.479980	55.320435	0.008942
54.464722	55.371094	0.009552
54.450073	55.332642	0.010193
54.434814	55.358276	0.010834
54.420166	55.320435	0.010193
54.404907	55.281982	0.010834
54.390259	55.288086	0.009552
54.375000	55.294800	0.008606
54.359741	55.269165	0.007965
54.345093	55.256348	0.010193
54.329834	55.250244	0.008942
54.315186	55.211792	0.010193
54.299927	55.192871	0.010193
54.285278	55.192871	0.010834
54.270020	55.161133	0.008606
54.254761	55.161133	0.010193
54.240112	55.161133	0.010193
54.224854	55.161133	0.009552
54.210205	55.115967	0.009888
54.194946	55.135498	0.011475
54.180298	55.065308	0.010834
54.165039	55.071411	0.009247
54.149780	55.059204	0.009552
54.135132	55.071411	0.009247
54.119873	55.059204	0.009247
54.105225	54.982300	0.009247
54.089966	55.014038	0.009888
54.074707	54.995117	0.009888
54.060059	54.963379	0.008942
54.044800	54.963379	0.009888
54.030151	54.944458	0.008301
54.014893	54.918823	0.009247
54.000244	54.950562	0.009888
53.984985	54.944458	0.007660
53.969727	54.899902	0.010193
53.955078	54.855347	0.010193
53.939819	54.874268	0.010193
53.925171	54.861450	0.009552
53.909912	54.887085	0.007965
53.895264	54.855347	0.010529
53.880005	54.842529	0.008942
53.864746	54.822998	0.010193
53.850098	54.797974	0.009888
53.834839	54.759521	0.011475
53.820190	54.791260	0.008942
53.804932	54.746704	0.010193
53.790283	54.772339	0.008942
53.775024	54.721069	0.010529
53.759766	54.721069	0.009247
53.745117	54.702148	0.009247
53.729858	54.714966	0.009888
53.715210	54.696045	0.008942
53.699951	54.644775	0.009552
53.685303	54.631958	0.009247
53.670044	54.663696	0.010834
53.654785	54.638672	0.008301
53.640137	54.613037	0.009888
53.624878	54.600220	0.009888
53.610229	54.594116	0.010529
53.594971	54.568481	0.008301
53.579712	54.581299	0.008942
53.565063	54.530029	0.010834
53.549805	54.530029	0.009247
53.535156	54.530029	0.008942
53.519897	54.523926	0.011475
53.505249	54.504395	0.009552
53.489990	54.472656	0.009552
53.474731	54.447021	0.010529
53.460083	54.447021	0.008942
53.444824	54.415283	0.010193
53.430176	54.434814	0.009552
53.414917	54.396362	0.008606
53.400269	54.396362	0.008942
53.385010	54.364624	0.009888
53.369751	54.338989	0.007965
53.355103	54.338989	0.009888
53.339844	54.300537	0.009552
53.325195	54.351807	0.009247
53.309937	54.300537	0.011169
53.295288	54.268799	0.008606
53.280029	54.275513	0.009552
53.264771	54.255981	0.009247
53.250122	54.275513	0.009247
53.234863	54.243164	0.009552
53.220215	54.224243	0.010193
53.204956	54.218140	0.009247
53.189697	54.198608	0.009247
53.175049	54.179687	0.009888
53.159790	54.173584	0.010834
53.145142	54.122314	0.009888
53.129883	54.129028	0.009888
53.115234	54.122314	0.009247
53.099976	54.147949	0.010529
53.084717	54.103394	0.011475
53.070068	54.071655	0.009247
53.054810	54.077759	0.010193
53.040161	54.071655	0.007660
53.024902	54.046021	0.008942
53.010254	53.994751	0.008942
52.994995	54.046021	0.010193
52.979736	53.988647	0.008301
52.965088	53.994751	0.008942
52.949829	53.969727	0.008301
52.935181	53.975830	0.010193
52.919922	53.937378	0.010193
52.905273	53.925171	0.010193
52.890015	53.905640	0.009552
52.874756	53.892822	0.009247
52.860107	53.867798	0.008301
52.844849	53.867798	0.009247
52.830200	53.873901	0.010193
52.814941	53.835449	0.008606
52.800293	53.829346	0.010193
52.785034	53.784790	0.009247
52.769775	53.816528	0.009552
52.755127	53.823242	0.009247
52.739868	53.797607	0.008301
52.725220	53.753052	0.008606
52.709961	53.740234	0.010193
52.694702	53.740234	0.010529
52.680054	53.727417	0.009552
52.664795	53.714600	0.010193
52.650146	53.695679	0.009247
52.634888	53.682861	0.009888
52.620239	53.657227	0.010193
52.604980	53.612671	0.009552
52.589722	53.619385	0.008301
52.575073	53.625488	0.009247
52.559814	53.599854	0.008606
52.545166	53.574219	0.010193
52.529907	53.580933	0.009247
52.515259	53.562012	0.008301
52.500000	53.562012	0.009247
52.484741	53.536377	0.010193
52.470093	53.510742	0.009888
52.454834	53.510742	0.008942
52.440186	53.491821	0.009247
52.424927	53.472290	0.008942
52.410278	53.460083	0.009247
52.395020	53.453369	0.010193
52.379761	53.440552	0.008606
52.365112	53.415527	0.008942
52.349854	53.402710	0.007965
52.335205	53.395996	0.007660
52.319946	53.370361	0.007965
52.305298	53.358154	0.008606
52.290039	53.325806	0.009552
52.274780	53.332520	0.008301
52.260132	53.313599	0.008942
52.244873	53.300781	0.009888
52.230225	53.294067	0.009552
52.214966	53.268433	0.008606
52.199707	53.256226	0.008301
52.185059	53.256226	0.008301
52.169800	53.230591	0.009247
52.155151	53.236694	0.009552
52.139893	53.198853	0.009552
52.125244	53.204956	0.009552
52.109985	53.173218	0.009552
52.094727	53.166504	0.008942
52.080078	53.141479	0.009247
52.064819	53.128662	0.007965
52.050171	53.121948	0.008606
52.034912	53.077393	0.008942
52.020264	53.121948	0.008942
52.005005	53.071289	0.008301
51.989746	53.077393	0.007965
51.975098	53.052368	0.008606
51.959839	53.052368	0.009247
51.945190	53.001099	0.011169
51.929932	53.020020	0.008942
51.915283	52.988281	0.008942
51.900024	53.007202	0.008942
51.884766	52.975464	0.008606
51.870117	52.962646	0.009888
51.854858	52.975464	0.009552
51.840210	52.937622	0.008301
51.824951	52.893066	0.008942
51.810303	52.899170	0.008606
51.795044	52.886353	0.010193
51.779785	52.860718	0.008301
51.765137	52.886353	0.009247
51.749878	52.835693	0.009552
51.735229	52.835693	0.008942
51.719971	52.803345	0.010834
51.704712	52.810059	0.010193
51.690063	52.746582	0.009888
51.674805	52.803345	0.007965
51.660156	52.746582	0.008942
51.644897	52.778320	0.008942
51.630249	52.752686	0.008301
51.614990	52.733765	0.008942
51.599731	52.682495	0.008606
51.585083	52.676392	0.006683
51.569824	52.669678	0.010529
51.555176	52.656860	0.009247
51.539917	52.650757	0.008301
51.525269	52.644653	0.008301
51.510010	52.612305	0.008942
51.494751	52.619019	0.009552
51.480103	52.580566	0.008942
51.464844	52.574463	0.008606
51.450195	52.529907	0.009247
51.434937	52.536011	0.008606
51.420288	52.529907	0.008301
51.405029	52.523193	0.009247
51.389771	52.478638	0.008942
51.375122	52.446899	0.009552
51.359863	52.453003	0.007019
51.345215	52.478638	0.009552
51.329956	52.421265	0.008301
51.314697	52.427979	0.008606
51.300049	52.415161	0.008942
51.284790	52.446899	0.010834
51.270142	52.395630	0.009888
51.254883	52.389526	0.009552
51.240234	52.370605	0.010193
51.224976	52.319336	0.008301
51.209717	52.326050	0.009888
51.195068	52.300415	0.008606
51.179810	52.306519	0.008606
51.165161	52.255859	0.008942
51.149902	52.281494	0.009247
51.135254	52.230225	0.008606
51.119995	52.230225	0.008606
51.104736	52.204590	0.008942
51.090088	52.230225	0.008942
51.074829	52.185669	0.009247
51.060181	52.185669	0.009247
51.044922	52.185669	0.008942
51.030273	52.122192	0.009552
51.015015	52.115479	0.009552
50.999756	52.134399	0.008942
50.985107	52.115479	0.009247
50.969849	52.102661	0.008301
50.955200	52.083740	0.008606
50.939941	52.039185	0.009888
50.925293	52.045288	0.008942
50.910034	52.026367	0.008301
50.894775	52.026367	0.010193
50.880127	52.007446	0.007324
50.864868	51.981812	0.007965
50.850220	51.975708	0.007660
50.834961	51.975708	0.008942
50.819702	51.937256	0.008301
50.805054	51.943359	0.008942
50.789795	51.930542	0.008606
50.775146	51.892700	0.008606
50.759888	51.905518	0.007324
50.745239	51.841431	0.008301
50.729980	51.854248	0.009247
50.714722	51.841431	0.009247
50.700073	51.860962	0.008942
50.684814	51.848145	0.008942
50.670166	51.790771	0.008942
50.654907	51.784058	0.008606
50.640259	51.784058	0.008942
50.625000	51.771240	0.008942
50.609741	51.726685	0.007324
50.595093	51.701660	0.008606
50.579834	51.726685	0.008301
50.565186	51.720581	0.008942
50.549927	51.694946	0.008301
50.535278	51.694946	0.008301
50.520020	51.663208	0.008301
50.504761	51.669312	0.007660
50.490112	51.618652	0.009247
50.474854	51.624756	0.009552
50.460205	51.612549	0.007965
50.444946	51.586914	0.008606
50.430298	51.580200	0.009247
50.415039	51.580200	0.007965
50.399780	51.586914	0.008301
50.385132	51.529541	0.007660
50.369873	51.529541	0.009552
50.355225	51.478271	0.008606
50.339966	51.491089	0.007660
50.324707	51.484985	0.007660
50.310059	51.491089	0.008606
50.294800	51.465454	0.008606
50.280151	51.440430	0.008606
50.264893	51.465454	0.008942
50.250244	51.389160	0.008301
50.234985	51.401978	0.009247
50.219727	51.383057	0.009552
50.205078	51.395874	0.008942
50.189819	51.351318	0.009552
50.175171	51.376343	0.008942
50.159912	51.318970	0.009247
50.145264	51.344604	0.009552
50.130005	51.268311	0.009247
50.114746	51.268311	0.008942
50.100098	51.281128	0.006073
50.084839	51.229858	0.008301
50.070190	51.223755	0.007019
50.054932	51.236572	0.007660
50.040283	51.204224	0.007660
50.025024	51.192017	0.008301
50.009766	51.166382	0.007660
49.995117	51.185303	0.007660
49.979858	51.109009	0.008301
49.965210	51.115112	0.007660
49.949951	51.102295	0.007019
49.935303	51.115112	0.007324
49.920044	51.096191	0.008301
49.904785	51.090088	0.007965
49.890137	51.077271	0.008942
49.874878	51.077271	0.007660
49.860229	51.038818	0.008301
49.844971	51.000366	0.007965
49.829712	51.007080	0.008606
49.815063	50.994263	0.008301
49.799805	51.000366	0.007965
49.785156	50.943604	0.007965
49.769897	50.936890	0.007965
49.755249	50.924072	0.008606
49.739990	50.892334	0.008301
49.724731	50.892334	0.007965
49.710083	50.905151	0.008301
49.694824	50.886230	0.008301
49.680176	50.853882	0.008942
49.664917	50.866699	0.009552
49.650269	50.834961	0.007324
49.635010	50.796509	0.007660
49.619751	50.803223	0.007019
49.605103	50.796509	0.008606
49.589844	50.803223	0.008301
49.575195	50.764771	0.007660
49.559937	50.707397	0.008301
49.545288	50.764771	0.007324
49.530029	50.701294	0.009552
49.514771	50.701294	0.008301
49.500122	50.682373	0.008606
49.484863	50.688477	0.008606
49.470215	50.637817	0.008606
49.454956	50.650024	0.008301
49.439697	50.618286	0.008606
49.425049	50.612183	0.007019
49.409790	50.586548	0.006683
49.395142	50.599365	0.010193
49.379883	50.567627	0.006378
49.365234	50.567627	0.007019
49.349976	50.541992	0.007965
49.334717	50.554810	0.006683
49.320068	50.554810	0.007324
49.304810	50.490723	0.008942
49.290161	50.471802	0.007324
49.274902	50.478516	0.008942
49.260254	50.484619	0.007965
49.244995	50.452881	0.009552
49.229736	50.401611	0.008942
49.215088	50.376587	0.008301
49.199829	50.401611	0.008301
49.185181	50.382690	0.007324
49.169922	50.338135	0.007965
49.155273	50.376587	0.008301
49.140015	50.344238	0.008301
49.124756	50.312500	0.007660
49.110107	50.312500	0.007965
49.094849	50.274658	0.007324
49.080200	50.286865	0.008606
49.064941	50.255127	0.008606
49.050293	50.261841	0.008942
49.035034	50.204468	0.007660
49.019775	50.223389	0.007660
49.005127	50.236206	0.007965
48.989868	50.197754	0.007660
48.975220	50.197754	0.009552
48.959961	50.172729	0.006683
48.944702	50.153198	0.007660
48.930054	50.159912	0.008606
48.914795	50.115356	0.006073
48.900146	50.089722	0.006378
48.884888	50.076904	0.008301
48.870239	50.095825	0.007660
48.854980	50.070801	0.009247
48.839722	50.038452	0.009247
48.825073	50.057983	0.007660
48.809814	50.032349	0.007019
48.795166	50.032349	0.007324
48.779907	50.006714	0.008606
48.765259	49.981079	0.007965
48.750000	49.949341	0.008942
48.734741	49.936523	0.007019
48.720093	49.885864	0.006378
48.704834	49.911499	0.008301
48.690186	49.936523	0.007019
48.674927	49.911499	0.007965
48.660278	49.898682	0.008301
48.645020	49.879150	0.008942
48.629761	49.879150	0.010193
48.615112	49.834595	0.008942
48.599854	49.815674	0.007660
48.585205	49.815674	0.008301
48.569946	49.790039	0.007324
48.555298	49.796753	0.006683
48.540039	49.777222	0.008606
48.524780	49.752197	0.007965
48.510132	49.726562	0.006683
48.494873	49.713745	0.008301
48.480225	49.700928	0.007019
48.464966	49.726562	0.007019
48.449707	49.662476	0.007019
48.435059	49.656372	0.009247
48.419800	49.650269	0.008942
48.405151	49.617920	0.007019
48.389893	49.617920	0.007019
48.375244	49.617920	0.007324
48.359985	49.573364	0.007324
48.344727	49.586182	0.006683
48.330078	49.567261	0.007660
48.314819	49.554443	0.007324
48.300171	49.509888	0.007965
48.284912	49.522705	0.007660
48.270264	49.484253	0.008301
48.255005	49.439697	0.007019
48.239746	49.458618	0.008606
48.225098	49.426880	0.007324
48.209839	49.420776	0.007019
48.195190	49.426880	0.007019
48.179932	49.420776	0.006683
48.165283	49.389038	0.007965
48.150024	49.395142	0.007660
48.134766	49.344482	0.008301
48.120117	49.331665	0.008606
48.104858	49.344482	0.008606
48.090210	49.331665	0.007660
48.074951	49.280396	0.007965
48.060303	49.280396	0.008606
48.045044	49.248657	0.007660
48.029785	49.280396	0.008942
48.015137	49.261475	0.007660
47.999878	49.229736	0.007660
47.985229	49.229736	0.007019
47.969971	49.216919	0.007660
47.954712	49.165649	0.007324
47.940063	49.159546	0.008606
47.924805	49.140625	0.008606
47.910156	49.152832	0.007660
47.894897	49.127808	0.007324
47.880249	49.102173	0.007660
47.864990	49.127808	0.008301
47.849731	49.076538	0.008301
47.835083	49.031982	0.006683
47.819824	49.025879	0.006073
47.805176	49.013062	0.006378
47.789917	49.013062	0.007019
47.775269	48.981323	0.007019
47.760010	48.993530	0.007660
47.744751	48.974609	0.006683
47.730103	48.942871	0.007324
47.714844	48.942871	0.007660
47.700195	48.936768	0.007660
47.684937	48.898315	0.006378
47.670288	48.936768	0.007324
47.655029	48.872681	0.007324
47.639771	48.923950	0.008942
47.625122	48.872681	0.007660
47.609863	48.847046	0.007324
47.595215	48.840942	0.007019
47.579956	48.809204	0.007019
47.564697	48.828125	0.007965
47.550049	48.783569	0.007324
47.534790	48.770752	0.006378
47.520142	48.770752	0.007660
47.504883	48.745117	0.007660
47.490234	48.732910	0.007660
47.474976	48.707275	0.006683
47.459717	48.687744	0.007965
47.445068	48.700562	0.006683
47.429810	48.656006	0.007324
47.415161	48.687744	0.008942
47.399902	48.630371	0.007660
47.385254	48.605347	0.007660
47.369995	48.611450	0.008606
47.354736	48.605347	0.007965
47.340088	48.573608	0.007324
47.324829	48.554077	0.007660
47.310181	48.560791	0.008301
47.294922	48.528442	0.006683
47.280273	48.528442	0.007965
47.265015	48.509521	0.007660
47.249756	48.452148	0.006683
47.235107	48.490601	0.007324
47.219849	48.426514	0.007660
47.205200	48.439331	0.007019
47.189941	48.439331	0.008606
47.175293	48.426514	0.007019
47.160034	48.394775	0.007660
47.144775	48.401489	0.007965
47.130127	48.344116	0.007324
47.114868	48.363037	0.006378
47.100220	48.363037	0.005737
47.084961	48.324585	0.007965
47.069702	48.312378	0.006683
47.055054	48.312378	0.007324
47.039795	48.292847	0.007324
47.025146	48.248291	0.008942
47.009888	48.255005	0.007324
46.995239	48.235474	0.008301
46.979980	48.229370	0.007324
46.964722	48.210449	0.007660
46.950073	48.184814	0.008301
46.934814	48.178101	0.005432
46.920166	48.159180	0.005432
46.904907	48.153076	0.008942
46.890259	48.159180	0.007019
46.875000	48.108521	0.006073
46.859741	48.101807	0.006073
46.845093	48.114624	0.006073
46.829834	48.082886	0.006378
46.815186	48.082886	0.009247
46.799927	48.044434	0.007965
46.785278	48.051147	0.007019
46.770020	48.031616	0.007324
46.754761	47.974243	0.006378
46.740112	48.044434	0.007965
46.724854	47.955322	0.009247
46.710205	47.955322	0.007324
46.694946	47.929687	0.005737
46.680298	47.916870	0.007324
46.665039	47.955322	0.006683
46.649780	47.891846	0.007324
46.635132	47.910767	0.007324
46.619873	47.879028	0.006378
46.605225	47.866211	0.007324
46.589966	47.808838	0.007324
46.574707	47.834473	0.007965
46.560059	47.808838	0.006683
46.544800	47.802734	0.007965
46.530151	47.802734	0.007660
46.514893	47.725830	0.007965
46.500244	47.757568	0.008301
46.484985	47.738647	0.007660
46.469727	47.687988	0.006378
46.455078	47.706909	0.007019
46.439819	47.662354	0.007019
46.425171	47.655640	0.007019
46.409912	47.649536	0.005737
46.395264	47.643433	0.007019
46.380005	47.611084	0.006378
46.364746	47.604980	0.007324
46.350098	47.579346	0.007019
46.334839	47.598877	0.007660
46.320190	47.592163	0.006683
46.304932	47.534790	0.007324
46.290283	47.534790	0.008301
46.275024	47.496948	0.007660
46.259766	47.521973	0.007019
46.245117	47.509155	0.007324
46.229858	47.496948	0.007019
46.215210	47.471313	0.006073
46.199951	47.458496	0.007324
46.185303	47.420044	0.006683
46.170044	47.458496	0.008606
46.154785	47.401123	0.007019
46.140137	47.420044	0.007965
46.124878	47.382202	0.008942
46.110229	47.388306	0.007019
46.094971	47.349854	0.007660
46.079712	47.330933	0.006683
46.065063	47.318115	0.007324
46.049805	47.292480	0.007660
46.035156	47.312012	0.007324
46.019897	47.273560	0.006073
46.005249	47.260742	0.006378
45.989990	47.292480	0.006683
45.974731	47.216187	0.007324
45.960083	47.229004	0.006378
45.944824	47.203369	0.006683
45.930176	47.171631	0.008301
45.914917	47.203369	0.007019
45.900269	47.133789	0.007660
45.885010	47.139893	0.005737
45.869751	47.139893	0.007965
45.855103	47.120972	0.007660
45.839844	47.114258	0.007019
45.825195	47.088623	0.006378
45.809937	47.088623	0.008606
45.795288	47.025146	0.007019
45.780029	47.012329	0.007019
45.764771	47.037964	0.007660
45.750122	47.025146	0.007324
45.734863	46.993408	0.006683
45.720215	46.974487	0.006073
45.704956	46.980591	0.005737
45.689697	46.942139	0.007660
45.675049	46.936035	0.007660
45.659790	46.942139	0.007019
45.645142	46.904297	0.007019
45.629883	46.923218	0.006378
45.615234	46.878662	0.007324
45.599976	46.840210	0.006073
45.584717	46.853027	0.006683
45.570068	46.846924	0.006378
45.554810	46.834106	0.007019
45.540161	46.828003	0.005737
45.524902	46.808472	0.006683
45.510254	46.782837	0.006683
45.494995	46.795654	0.006378
45.479736	46.751099	0.006683
45.465088	46.782837	0.007965
45.449829	46.738281	0.007019
45.435181	46.700439	0.007965
45.419922	46.680908	0.006378
45.405273	46.700439	0.006378
45.390015	46.687622	0.007660
45.374756	46.668701	0.006073
45.360107	46.655884	0.006378
45.344849	46.591797	0.005737
45.330200	46.604614	0.006073
45.314941	46.541138	0.005737
45.300293	46.585693	0.006683
45.285034	46.553955	0.007019
45.269775	46.560059	0.007019
45.255127	46.553955	0.006378
45.239868	46.528320	0.008606
45.225220	46.477051	0.007660
45.209961	46.470947	0.006683
45.194702	46.477051	0.007019
45.180054	46.489868	0.006378
45.164795	46.458130	0.007324
45.150146	46.432495	0.007324
45.134888	46.426392	0.007019
45.120239	46.400757	0.005737
45.104980	46.394653	0.006073
45.089722	46.381836	0.006378
45.075073	46.356201	0.007324
45.059814	46.311646	0.006683
45.045166	46.292725	0.006073
45.029907	46.305542	0.006683
45.015259	46.279907	0.007965
45.000000	46.260986	0.007965
44.984741	46.241455	0.008606
44.970093	46.241455	0.005432
44.954834	46.228638	0.006378
44.940186	46.203613	0.007019
44.924927	46.196899	0.007965
44.910278	46.222534	0.007965
44.895020	46.209717	0.006378
44.879761	46.152344	0.006683
44.865112	46.165161	0.006683
44.849854	46.133423	0.006378
44.835205	46.101685	0.005737
44.819946	46.120605	0.006073
44.805298	46.113892	0.006073
44.790039	46.107788	0.007660
44.774780	46.031494	0.007019
44.760132	46.037598	0.006378
44.744873	46.031494	0.006378
44.730225	46.024780	0.007019
44.714966	46.031494	0.005737
44.699707	45.967407	0.006378
44.685059	45.974121	0.007660
44.669800	45.935669	0.007019
44.655151	45.935669	0.007019
44.639893	45.922852	0.006683
44.625244	45.891113	0.006683
44.609985	45.891113	0.006683
44.594727	45.865479	0.006683
44.580078	45.872192	0.006683
44.564819	45.872192	0.006683
44.550171	45.846558	0.007324
44.534912	45.846558	0.005432
44.520264	45.814819	0.007660
44.505005	45.814819	0.006378
44.489746	45.757446	0.007019
44.475098	45.776367	0.006073
44.459839	45.757446	0.007019
44.445190	45.744629	0.005737
44.429932	45.731812	0.005432
44.415283	45.725708	0.006073
44.400024	45.661621	0.005737
44.384766	45.674438	0.005737
44.370117	45.687256	0.005096
44.354858	45.636597	0.007660
44.340210	45.617065	0.007324
44.324951	45.655518	0.007660
44.310303	45.598145	0.006378
44.295044	45.579224	0.006378
44.279785	45.585327	0.006378
44.265137	45.553589	0.006683
44.249878	45.546875	0.006073
44.235229	45.534668	0.007019
44.219971	45.509033	0.006378
44.204712	45.477295	0.005737
44.190063	45.483398	0.007019
44.174805	45.477295	0.007660
44.160156	45.470581	0.007660
44.144897	45.444946	0.007660
44.130249	45.426025	0.007019
44.114990	45.419922	0.006683
44.099731	45.381470	0.007019
44.085083	45.381470	0.006378
44.069824	45.387573	0.006073
44.055176	45.387573	0.005432
44.039917	45.349731	0.007324
44.025269	45.330811	0.007965
44.010010	45.305176	0.006378
43.994751	45.253906	0.007324
43.980103	45.266724	0.005096
43.964844	45.228882	0.007660
43.950195	45.241089	0.006683
43.934937	45.260620	0.006378
43.920288	45.241089	0.006378
43.905029	45.203247	0.006683
43.889771	45.177612	0.007019
43.875122	45.177612	0.007965
43.859863	45.120239	0.007019
43.845215	45.120239	0.006378
43.829956	45.126953	0.006378
43.814697	45.107422	0.007660
43.800049	45.088501	0.006378
43.784790	45.088501	0.007019
43.770142	45.056763	0.007660
43.754883	45.056763	0.005432
43.740234	45.056763	0.006378
43.724976	45.025024	0.005432
43.709717	45.005493	0.007019
43.695068	45.025024	0.006378
43.679810	45.018311	0.006683
43.665161	44.967651	0.007019
43.649902	44.948120	0.008301
43.635254	44.923096	0.007019
43.619995	44.929199	0.006073
43.604736	44.916382	0.004456
43.590088	44.884644	0.005432
43.574829	44.833374	0.007660
43.560181	44.846191	0.007019
43.544922	44.852905	0.006378
43.530273	44.840088	0.006073
43.515015	44.808350	0.006073
43.499756	44.782715	0.006073
43.485107	44.763794	0.005096
43.469849	44.795532	0.006378
43.455200	44.763794	0.005737
43.439941	44.757080	0.005737
43.425293	44.757080	0.006683
43.410034	44.750977	0.006378
43.394775	44.693604	0.007324
43.380127	44.706421	0.006073
43.364868	44.655151	0.006683
43.350220	44.661865	0.007019
43.334961	44.610596	0.007660
43.319702	44.597778	0.006683
43.305054	44.578857	0.006073
43.289795	44.591675	0.006683
43.275146	44.578857	0.006683
43.259888	44.553223	0.006683
43.245239	44.572144	0.006073
43.229980	44.527588	0.005096
43.214722	44.514771	0.007324
43.200073	44.476929	0.005737
43.184814	44.495850	0.005737
43.170166	44.476929	0.006073
43.154907	44.464111	0.004456
43.140259	44.458008	0.005737
43.125000	44.412842	0.006683
43.109741	44.400635	0.006683
43.095093	44.419556	0.006683
43.079834	44.368286	0.005432
43.065186	44.368286	0.006378
43.049927	44.343262	0.006378
43.035278	44.317627	0.006073
43.020020	44.317627	0.006683
43.004761	44.336548	0.007019
42.990112	44.291992	0.005737
42.974854	44.247437	0.006378
42.960205	44.273071	0.007019
42.944946	44.228516	0.005737
42.930298	44.234619	0.005737
42.915039	44.221802	0.004791
42.899780	44.234619	0.006683
42.885132	44.221802	0.006073
42.869873	44.183960	0.006073
42.855225	44.164429	0.007019
42.839966	44.107056	0.005737
42.824707	44.132690	0.006683
42.810059	44.145508	0.006378
42.794800	44.094849	0.005737
42.780151	44.100952	0.006683
42.764893	44.082031	0.006378
42.750244	44.069214	0.008301
42.734985	44.043579	0.006073
42.719727	44.017944	0.005432
42.705078	44.030762	0.007324
42.689819	43.999023	0.006683
42.675171	44.005127	0.005432
42.659912	43.954468	0.007019
42.645264	43.954468	0.007019
42.630005	43.967285	0.006073
42.614746	43.947754	0.006073
42.600098	43.916016	0.006683
42.584839	43.916016	0.006073
42.570190	43.909912	0.007019
42.554932	43.922729	0.006378
42.540283	43.865356	0.006378
42.525024	43.839722	0.007019
42.509766	43.826904	0.005737
42.495117	43.795166	0.006073
42.479858	43.795166	0.006073
42.465210	43.756714	0.007019
42.449951	43.776245	0.006073
42.435303	43.737793	0.007324
42.420044	43.743896	0.006073
42.404785	43.731689	0.005737
42.390137	43.693237	0.005737
42.374878	43.693237	0.006683
42.360229	43.648682	0.006683
42.344971	43.648682	0.005432
42.329712	43.641968	0.005737
42.315063	43.629761	0.005737
42.299805	43.635864	0.006378
42.285156	43.623047	0.006683
42.269897	43.591309	0.005737
42.255249	43.578491	0.004791
42.239990	43.546753	0.006378
42.224731	43.546753	0.006378
42.210083	43.546753	0.005737
42.194824	43.495483	0.006073
42.180176	43.495483	0.006073
42.164917	43.495483	0.005737
42.150269	43.438110	0.006073
42.135010	43.450928	0.005096
42.119751	43.483276	0.005096
42.105103	43.444824	0.006073
42.089844	43.419189	0.006683
42.075195	43.342896	0.006683
42.059937	43.368530	0.004456
42.045288	43.342896	0.005737
42.030029	43.342896	0.006683
42.014771	43.342896	0.006378
42.000122	43.304443	0.006683
41.984863	43.291626	0.006073
41.970215	43.266602	0.008301
41.954956	43.291626	0.005737
41.939697	43.247070	0.005432
41.925049	43.259888	0.004456
41.909790	43.183594	0.006378
41.895142	43.209229	0.005737
41.879883	43.240967	0.006073
41.865234	43.170776	0.007660
41.849976	43.176880	0.006683
41.834717	43.164673	0.006378
41.820068	43.132324	0.006378
41.804810	43.120117	0.005096
41.790161	43.157959	0.006683
41.774902	43.087769	0.007019
41.760254	43.113403	0.006683
41.744995	43.056030	0.007965
41.729736	43.062744	0.005432
41.715088	43.024292	0.006378
41.699829	42.985840	0.006683
41.685181	43.011475	0.006073
41.669922	43.011475	0.005737
41.655273	42.954102	0.004456
41.640015	42.928467	0.005432
41.624756	42.979736	0.004456
41.610107	42.985840	0.007324
41.594849	42.935181	0.006378
41.580200	42.903442	0.006073
41.564941	42.935181	0.005737
41.550293	42.909546	0.006378
41.535034	42.883911	0.005096
41.519775	42.846069	0.006683
41.505127	42.781982	0.007019
41.489868	42.801514	0.005096
41.475220	42.794800	0.006683
41.459961	42.781982	0.005432
41.444702	42.820435	0.007019
41.430054	42.781982	0.006378
41.414795	42.750244	0.005737
41.400146	42.718506	0.006073
41.384888	42.680054	0.005737
41.370239	42.705688	0.006378
41.354980	42.680054	0.006073
41.339722	42.680054	0.006378
41.325073	42.655029	0.007660
41.309814	42.655029	0.006683
41.295166	42.655029	0.006683
41.279907	42.622681	0.006073
41.265259	42.609863	0.005096
41.250000	42.578125	0.006073
41.234741	42.572021	0.006073
41.220093	42.578125	0.006073
41.204834	42.533569	0.005737
41.190186	42.514648	0.004791
41.174927	42.533569	0.006683
41.160278	42.507935	0.006683
41.145020	42.451172	0.006073
41.129761	42.476196	0.005737
41.115112	42.425537	0.006378
41.099854	42.451172	0.006073
41.085205	42.425537	0.006073
41.069946	42.399902	0.006378
41.055298	42.387085	0.004791
41.040039	42.374268	0.005096
41.024780	42.355347	0.007019
41.010132	42.355347	0.007019
40.994873	42.329712	0.005432
40.980225	42.336426	0.005737
40.964966	42.285156	0.004791
40.949707	42.297974	0.005096
40.935059	42.272339	0.006378
40.919800	42.234497	0.006073
40.905151	42.221680	0.006073
40.889893	42.189941	0.006073
40.875244	42.196045	0.005737
40.859985	42.177124	0.005096
40.844727	42.183228	0.006073
40.830078	42.144775	0.004791
40.814819	42.119751	0.006683
40.800171	42.088013	0.006073
40.784912	42.094116	0.005096
40.770264	42.132568	0.006073
40.755005	42.088013	0.006378
40.739746	42.042847	0.005096
40.725098	42.049561	0.005432
40.709839	42.017822	0.005432
40.695190	41.998291	0.004791
40.679932	42.005005	0.005737
40.665283	41.986084	0.005096
40.650024	41.979370	0.005737
40.634766	41.960449	0.005737
40.620117	41.940918	0.006378
40.604858	41.940918	0.006378
40.590210	41.921997	0.005432
40.574951	41.890259	0.005096
40.560303	41.890259	0.006073
40.545044	41.877441	0.005737
40.529785	41.877441	0.004791
40.515137	41.858521	0.006378
40.499878	41.851807	0.006378
40.485229	41.801147	0.006073
40.469971	41.813965	0.006073
40.454712	41.775513	0.005737
40.440063	41.788330	0.006073
40.424805	41.737061	0.006073
40.410156	41.743774	0.005096
40.394897	41.692505	0.007019
40.380249	41.712036	0.006073
40.364990	41.699219	0.004150
40.349731	41.667480	0.005737
40.335083	41.660767	0.006378
40.319824	41.635132	0.005737
40.305176	41.610107	0.005432
40.289917	41.629028	0.004456
40.275269	41.622925	0.005432
40.260010	41.584473	0.005432
40.244751	41.571655	0.004150
40.230103	41.539917	0.005096
40.214844	41.539917	0.005432
40.200195	41.539917	0.005432
40.184937	41.488647	0.005432
40.170288	41.508179	0.006073
40.155029	41.444092	0.006073
40.139771	41.482544	0.004456
40.125122	41.437988	0.003845
40.109863	41.425171	0.005096
40.095215	41.450806	0.006378
40.079956	41.419067	0.003845
40.064697	41.393433	0.004791
40.050049	41.361694	0.004150
40.034790	41.354980	0.004791
40.020142	41.380615	0.005432
40.004883	41.336060	0.005096
39.990234	41.310425	0.004456
39.974976	41.304321	0.006378
39.959717	41.253052	0.006073
39.945068	41.278687	0.006073
39.929810	41.253052	0.004791
39.915161	41.227417	0.005432
39.899902	41.227417	0.004456
39.885254	41.221313	0.006683
39.869995	41.202393	0.005096
39.854736	41.176758	0.005432
39.840088	41.170044	0.004456
39.824829	41.163940	0.005737
39.810181	41.132202	0.006378
39.794922	41.125488	0.006683
39.780273	41.125488	0.004150
39.765015	41.138306	0.005432
39.749756	41.087646	0.007019
39.735107	41.068115	0.006683
39.719849	41.049194	0.005737
39.705200	41.023560	0.005737
39.689941	40.985718	0.005096
39.675293	41.049194	0.006073
39.660034	40.979004	0.004791
39.644775	40.985718	0.004150
39.630127	40.928345	0.006683
39.614868	40.902710	0.005737
39.600220	40.921631	0.006073
39.584961	40.915527	0.006683
39.569702	40.928345	0.006683
39.555054	40.864258	0.005737
39.539795	40.845337	0.005096
39.525146	40.845337	0.004456
39.509888	40.852051	0.006683
39.495239	40.826416	0.004150
39.479980	40.806885	0.006073
39.464722	40.800781	0.005737
39.450073	40.775146	0.006073
39.434814	40.750122	0.004150
39.420166	40.756226	0.004150
39.404907	40.756226	0.004150
39.390259	40.724487	0.005432
39.375000	40.667114	0.007019
39.359741	40.679932	0.006378
39.345093	40.679932	0.005737
39.329834	40.654297	0.006073
39.315186	40.654297	0.005737
39.299927	40.628662	0.005737
39.285278	40.609741	0.005737
39.270020	40.603027	0.006683
39.254761	40.584106	0.004791
39.240112	40.578003	0.005096
39.224854	40.552368	0.006073
39.210205	40.539551	0.003510
39.194946	40.520630	0.003845
39.180298	40.520630	0.005432
39.165039	40.488892	0.005737
39.149780	40.476074	0.005096
39.135132	40.482178	0.004456
39.119873	40.437622	0.006073
39.105225	40.399170	0.005737
39.089966	40.411987	0.004150
39.074707	40.411987	0.004456
39.060059	40.411987	0.006378
39.044800	40.348511	0.005737
39.030151	40.348511	0.006683
39.014893	40.348511	0.005737
39.000244	40.310059	0.004150
38.984985	40.291138	0.006378
38.969727	40.316772	0.005096
38.955078	40.291138	0.005737
38.939819	40.278320	0.005096
38.925171	40.265503	0.004456
38.909912	40.246582	0.005096
38.895264	40.233765	0.006683
38.880005	40.208130	0.004456
38.864746	40.183105	0.004791
38.850098	40.195312	0.005737
38.834839	40.176392	0.004791
38.820190	40.157471	0.005096
38.804932	40.131836	0.006073
38.790283	40.093384	0.006378
38.775024	40.119019	0.004150
38.759766	40.093384	0.004150
38.745117	40.074463	0.004791
38.729858	40.061646	0.004456
38.715210	40.055542	0.003845
38.699951	40.017090	0.004791
38.685303	40.042725	0.004791
38.670044	40.004272	0.006073
38.654785	39.998169	0.005737
38.640137	39.966431	0.005096
38.624878	39.972534	0.006683
38.610229	39.934082	0.005096
38.594971	39.940796	0.006378
38.579712	39.934082	0.005432
38.565063	39.902344	0.005737
38.549805	39.889526	0.003845
38.535156	39.883423	0.005432
38.519897	39.851685	0.004791
38.505249	39.870605	0.004791
38.489990	39.826050	0.005096
38.474731	39.832153	0.004791
38.460083	39.826050	0.004791
38.444824	39.762573	0.006378
38.430176	39.775391	0.005096
38.414917	39.755859	0.003204
38.400269	39.755859	0.004791
38.385010	39.736938	0.003204
38.369751	39.724121	0.004791
38.355103	39.698486	0.005096
38.339844	39.698486	0.005432
38.325195	39.666748	0.005432
38.309937	39.635010	0.005737
38.295288	39.609375	0.004791
38.280029	39.635010	0.005096
38.264771	39.635010	0.004456
38.250122	39.603271	0.004456
38.234863	39.577637	0.004791
